## File LOS/SB2_B2004a_2.5z_Mags_1200.bpz  Sat Aug 13 01:32:22 2016
##
##Parameters used to run BPZ:
##
##AB_DIR=/home/lidenscheng/bpz-1.99.3//AB/
##ADD_CONTINUOUS_PROB=None
##ADD_SPEC_PROB=None
##CHECK=LOS/SB2_B2004a_2.5z_Mags_1200.flux_comparison
##COLOR=no
##COLUMNS=losNoErrors.columns
##CONVOLVE_P=yes
##DELTA_M_0=0.0
##DZ=0.01
##EXCLUDE=none
##FC=None
##FILTER_DIR=/home/lidenscheng/MK_DirectSim/filters/
##GET_Z=yes
##INPUT=LOS/SB2_B2004a_2.5z_Mags_1200.txt
##INTERACTIVE=yes
##INTERP=0
##MADAU=no
##MAG=yes
##MEAN_IGM=yes
##MERGE_PEAKS=no
##MIN_MAGERR=0.001
##MIN_RMS=0.05
##NEW_AB=no
##NMAX=None
##NTYPES=None
##N_PEAKS=1
##ODDS=0.95
##ONLY_TYPE=no
##OUTPUT=LOS/SB2_B2004a_2.5z_Mags_1200.bpz
##PHOTO_ERRORS=no
##PLOTS=no
##PRIOR=none
##PROBS=no
##PROBS2=no
##PROBS_LITE=LOS/SB2_B2004a_2.5z_Mags_1200.probs
##P_MIN=0.01
##SED_DIR=/home/lidenscheng/MK_DirectSim/SEDs/
##SPECTRA=SB2.list
##VERBOSE=yes
##ZC=None
##ZMAX=10.0
##ZMIN=0.01
##ZP_OFFSETS=0.0
##Z_THR=0
##
##Column information
##
# 1 ID
# 2 Z_B
# 3 Z_B_MIN
# 4 Z_B_MAX
# 5 T_B
# 6 ODDS    
# 7 Z_ML
# 8 T_ML
# 9 CHI-SQUARED
# 10 M_0
##
    1 2.500 2.157  2.843 1.000 1.00000 2.510 1.000      0.909  23.000
    2 2.540 2.193  2.887 1.000 1.00000 2.540 1.000      1.392  23.000
    3 2.490 2.148  2.832 1.000 1.00000 2.490 1.000      0.230  23.000
    4 2.490 2.148  2.832 1.000 1.00000 2.490 1.000      0.261  23.000
    5 2.530 2.184  2.876 1.000 1.00000 2.530 1.000      1.043  23.000
    6 2.550 2.202  2.898 1.000 1.00000 2.550 1.000      1.228  23.000
    7 2.560 2.211  2.909 1.000 1.00000 2.550 1.000      6.632  23.000
    8 2.550 2.202  2.898 1.000 1.00000 2.550 1.000      4.461  23.000
    9 2.520 2.175  2.865 1.000 1.00000 2.520 1.000      2.641  23.000
   10 2.570 2.220  2.920 1.000 1.00000 2.570 1.000      2.606  23.000
   11 2.540 2.193  2.887 1.000 1.00000 2.540 1.000      1.751  23.000
   12 2.550 2.202  2.898 1.000 1.00000 2.550 1.000      2.174  23.000
   13 2.580 2.229  2.931 1.000 1.00000 2.580 1.000      1.872  23.000
   14 2.580 2.229  2.931 1.000 1.00000 2.580 1.000      1.712  23.000
   15 2.540 2.193  2.887 1.000 1.00000 2.540 1.000      1.802  23.000
   16 2.630 2.274  2.986 1.000 1.00000 2.630 1.000     10.323  23.000
   17 2.640 2.283  2.997 1.000 1.00000 2.640 1.000      5.160  23.000
   18 2.450 2.112  2.788 1.000 1.00000 2.450 1.000      3.724  23.000
   19 2.500 2.157  2.843 1.000 1.00000 2.500 1.000      0.585  23.000
   20 2.620 2.265  2.975 1.000 1.00000 2.620 1.000      3.317  23.000
   21 2.610 2.256  2.964 1.000 1.00000 2.610 1.000      4.294  23.000
   22 2.530 2.184  2.876 1.000 1.00000 2.540 1.000      0.795  23.000
   23 2.570 2.220  2.920 1.000 1.00000 2.570 1.000      3.764  23.000
   24 2.450 2.112  2.788 1.000 1.00000 2.450 1.000      4.329  23.000
   25 2.490 2.148  2.832 1.000 1.00000 2.490 1.000      0.353  23.000
   26 2.620 2.265  2.975 1.000 1.00000 2.620 1.000      3.649  23.000
   27 2.540 2.193  2.887 1.000 1.00000 2.540 1.000      2.517  23.000
   28 2.540 2.193  2.887 1.000 1.00000 2.540 1.000      2.110  23.000
   29 2.530 2.184  2.876 1.000 1.00000 2.530 1.000      1.114  23.000
   30 2.590 2.238  2.942 1.000 1.00000 2.590 1.000      7.415  23.000
   31 2.440 2.103  2.777 1.000 1.00000 2.440 1.000      2.299  23.000
   32 2.510 2.166  2.854 1.000 1.00000 2.510 1.000      0.378  23.000
   33 2.470 2.130  2.810 1.000 1.00000 2.470 1.000      1.463  23.000
   34 2.460 2.121  2.799 1.000 1.00000 2.460 1.000      5.235  23.000
   35 2.560 2.211  2.909 1.000 1.00000 2.560 1.000      1.670  23.000
   36 2.540 2.193  2.887 1.000 1.00000 2.540 1.000      1.316  23.000
   37 2.550 2.202  2.898 1.000 1.00000 2.550 1.000      4.480  23.000
   38 2.560 2.211  2.909 1.000 1.00000 2.560 1.000      1.699  23.000
   39 2.600 2.247  2.953 1.000 1.00000 2.600 1.000      3.069  23.000
   40 2.450 2.112  2.788 1.000 1.00000 2.450 1.000      3.170  23.000
   41 2.560 2.211  2.909 1.000 1.00000 2.560 1.000      2.390  23.000
   42 2.590 2.238  2.942 1.000 1.00000 2.590 1.000      2.224  23.000
   43 2.490 2.148  2.832 1.000 1.00000 2.490 1.000      0.554  23.000
   44 2.640 2.283  2.997 1.000 1.00000 2.640 1.000     15.032  23.000
   45 2.620 2.265  2.975 1.000 1.00000 2.620 1.000      4.216  23.000
   46 2.570 2.220  2.920 1.000 1.00000 2.570 1.000      4.432  23.000
   47 2.500 2.157  2.843 1.000 1.00000 2.500 1.000      1.702  23.000
   48 2.620 2.265  2.975 1.000 1.00000 2.620 1.000      5.474  23.000
   49 2.660 2.301  3.019 1.000 1.00000 2.660 1.000     30.298  23.000
   50 2.640 2.283  2.997 1.000 1.00000 2.640 1.000      9.433  23.000
   51 2.650 2.292  3.008 1.000 1.00000 2.650 1.000     14.008  23.000
   52 2.590 2.238  2.942 1.000 1.00000 2.590 1.000      4.020  23.000
   53 2.470 2.130  2.810 1.000 1.00000 2.470 1.000      0.863  23.000
   54 2.500 2.157  2.843 1.000 1.00000 2.500 1.000      1.509  23.000
   55 2.540 2.193  2.887 1.000 1.00000 2.540 1.000      0.976  23.000
   56 2.520 2.175  2.865 1.000 1.00000 2.520 1.000      0.231  23.000
   57 2.490 2.148  2.832 1.000 1.00000 2.490 1.000      0.313  23.000
   58 2.530 2.184  2.876 1.000 1.00000 2.530 1.000      3.647  23.000
   59 2.510 2.166  2.854 1.000 1.00000 2.510 1.000      0.267  23.000
   60 2.550 2.202  2.898 1.000 1.00000 2.550 1.000      3.097  23.000
   61 2.550 2.202  2.898 1.000 1.00000 2.550 1.000      2.084  23.000
   62 2.570 2.220  2.920 1.000 1.00000 2.570 1.000      7.248  23.000
   63 2.510 2.166  2.854 1.000 1.00000 2.510 1.000      0.315  23.000
   64 2.630 2.274  2.986 1.000 1.00000 2.630 1.000     12.168  23.000
   65 2.550 2.202  2.898 1.000 1.00000 2.550 1.000      3.910  23.000
   66 2.450 2.112  2.788 1.000 1.00000 2.450 1.000      7.249  23.000
   67 2.530 2.184  2.876 1.000 1.00000 2.530 1.000      1.111  23.000
   68 2.570 2.220  2.920 1.000 1.00000 2.570 1.000      6.137  23.000
   69 2.540 2.193  2.887 1.000 1.00000 2.540 1.000      1.214  23.000
   70 2.550 2.202  2.898 1.000 1.00000 2.550 1.000      3.925  23.000
   71 2.480 2.139  2.821 1.000 1.00000 2.480 1.000      0.535  23.000
   72 2.640 2.283  2.997 1.000 1.00000 2.640 1.000     13.121  23.000
   73 2.550 2.202  2.898 1.000 1.00000 2.550 1.000      1.078  23.000
   74 2.550 2.202  2.898 1.000 1.00000 2.550 1.000      6.685  23.000
   75 2.580 2.229  2.931 1.000 1.00000 2.580 1.000      3.372  23.000
   76 2.520 2.175  2.865 1.000 1.00000 2.520 1.000      0.179  23.000
   77 2.590 2.238  2.942 1.000 1.00000 2.590 1.000      3.165  23.000
   78 2.600 2.247  2.953 1.000 1.00000 2.600 1.000      2.974  23.000
   79 2.540 2.193  2.887 1.000 1.00000 2.540 1.000      2.187  23.000
   80 2.590 2.238  2.942 1.000 1.00000 2.590 1.000      7.393  23.000
   81 2.550 2.202  2.898 1.000 1.00000 2.550 1.000      1.548  23.000
   82 2.580 2.229  2.931 1.000 1.00000 2.580 1.000      4.153  23.000
   83 2.530 2.184  2.876 1.000 1.00000 2.530 1.000      0.925  23.000
   84 2.460 2.121  2.799 1.000 1.00000 2.460 1.000      1.463  23.000
   85 2.550 2.202  2.898 1.000 1.00000 2.550 1.000      2.229  23.000
   86 2.580 2.229  2.931 1.000 1.00000 2.580 1.000      4.703  23.000
   87 2.590 2.238  2.942 1.000 1.00000 2.590 1.000      4.886  23.000
   88 2.500 2.157  2.843 1.000 1.00000 2.500 1.000      0.073  23.000
   89 2.550 2.202  2.898 1.000 1.00000 2.550 1.000      1.689  23.000
   90 2.510 2.166  2.854 1.000 1.00000 2.510 1.000      0.319  23.000
   91 2.540 2.193  2.887 1.000 1.00000 2.540 1.000      2.391  23.000
   92 2.610 2.256  2.964 1.000 1.00000 2.610 1.000      9.517  23.000
   93 2.570 2.220  2.920 1.000 1.00000 2.570 1.000      2.017  23.000
   94 2.480 2.139  2.821 1.000 1.00000 2.480 1.000      1.463  23.000
   95 2.460 2.121  2.799 1.000 1.00000 2.460 1.000      2.209  23.000
   96 2.600 2.247  2.953 1.000 1.00000 2.600 1.000      6.305  23.000
   97 2.530 2.184  2.876 1.000 1.00000 2.530 1.000      3.589  23.000
   98 2.540 2.193  2.887 1.000 1.00000 2.540 1.000      2.950  23.000
   99 2.540 2.193  2.887 1.000 1.00000 2.540 1.000      0.723  23.000
  100 2.540 2.193  2.887 1.000 1.00000 2.540 1.000      1.819  23.000
  101 2.540 2.193  2.887 1.000 1.00000 2.540 1.000      1.902  23.000
  102 2.550 2.202  2.898 1.000 1.00000 2.550 1.000      4.328  23.000
  103 2.490 2.148  2.832 1.000 1.00000 2.490 1.000      0.294  23.000
  104 2.590 2.238  2.942 1.000 1.00000 2.590 1.000      2.563  23.000
  105 2.560 2.211  2.909 1.000 1.00000 2.560 1.000      1.477  23.000
  106 2.500 2.157  2.843 1.000 1.00000 2.500 1.000      0.804  23.000
  107 2.640 2.283  2.997 1.000 1.00000 2.640 1.000      8.233  23.000
  108 2.550 2.202  2.898 1.000 1.00000 2.550 1.000      2.833  23.000
  109 2.520 2.175  2.865 1.000 1.00000 2.520 1.000      1.272  23.000
  110 2.640 2.283  2.997 1.000 1.00000 2.640 1.000      2.512  23.000
  111 2.610 2.256  2.964 1.000 1.00000 2.610 1.000      4.737  23.000
  112 2.550 2.202  2.898 1.000 1.00000 2.550 1.000      0.643  23.000
  113 2.540 2.193  2.887 1.000 1.00000 2.540 1.000      2.771  23.000
  114 2.510 2.166  2.854 1.000 1.00000 2.510 1.000      0.125  23.000
  115 2.490 2.148  2.832 1.000 1.00000 2.490 1.000      2.706  23.000
  116 2.600 2.247  2.953 1.000 1.00000 2.600 1.000     11.110  23.000
  117 2.550 2.202  2.898 1.000 1.00000 2.550 1.000      3.877  23.000
  118 2.530 2.184  2.876 1.000 1.00000 2.530 1.000      0.398  23.000
  119 2.570 2.220  2.920 1.000 1.00000 2.570 1.000      1.522  23.000
  120 2.570 2.220  2.920 1.000 1.00000 2.570 1.000      7.231  23.000
  121 2.610 2.256  2.964 1.000 1.00000 2.610 1.000      1.503  23.000
  122 2.650 2.292  3.008 1.000 1.00000 2.650 1.000     11.772  23.000
  123 2.610 2.256  2.964 1.000 1.00000 2.610 1.000      8.889  23.000
  124 2.490 2.148  2.832 1.000 1.00000 2.490 1.000      0.318  23.000
  125 2.610 2.256  2.964 1.000 1.00000 2.610 1.000      1.624  23.000
  126 2.540 2.193  2.887 1.000 1.00000 2.540 1.000      1.191  23.000
  127 2.580 2.229  2.931 1.000 1.00000 2.580 1.000      8.268  23.000
  128 2.500 2.157  2.843 1.000 1.00000 2.500 1.000      0.119  23.000
  129 2.490 2.148  2.832 1.000 1.00000 2.490 1.000      1.308  23.000
  130 2.420 2.085  2.755 1.000 1.00000 2.420 1.000      8.415  23.000
  131 2.620 2.265  2.975 1.000 1.00000 2.620 1.000      6.362  23.000
  132 2.540 2.193  2.887 1.000 1.00000 2.540 1.000      3.400  23.000
  133 2.530 2.184  2.876 1.000 1.00000 2.530 1.000      2.413  23.000
  134 2.560 2.211  2.909 1.000 1.00000 2.560 1.000      6.452  23.000
  135 2.480 2.139  2.821 1.000 1.00000 2.490 1.000      0.479  23.000
  136 2.570 2.220  2.920 1.000 1.00000 2.570 1.000      3.921  23.000
  137 2.460 2.121  2.799 1.000 1.00000 2.460 1.000      2.223  23.000
  138 2.520 2.175  2.865 1.000 1.00000 2.520 1.000      0.709  23.000
  139 2.650 2.292  3.008 1.000 1.00000 2.650 1.000      3.882  23.000
  140 2.530 2.184  2.876 1.000 1.00000 2.540 1.000      1.618  23.000
  141 2.550 2.202  2.898 1.000 1.00000 2.550 1.000      2.258  23.000
  142 2.520 2.175  2.865 1.000 1.00000 2.520 1.000      2.272  23.000
  143 2.570 2.220  2.920 1.000 1.00000 2.570 1.000      1.237  23.000
  144 2.530 2.184  2.876 1.000 1.00000 2.530 1.000      0.621  23.000
  145 2.540 2.193  2.887 1.000 1.00000 2.540 1.000      1.792  23.000
  146 2.530 2.184  2.876 1.000 1.00000 2.530 1.000      1.411  23.000
  147 2.660 2.301  3.019 1.000 1.00000 2.660 1.000     19.468  23.000
  148 2.610 2.256  2.964 1.000 1.00000 2.610 1.000      3.720  23.000
  149 2.540 2.193  2.887 1.000 1.00000 2.540 1.000      1.450  23.000
  150 2.460 2.121  2.799 1.000 1.00000 2.460 1.000      1.703  23.000
  151 2.530 2.184  2.876 1.000 1.00000 2.530 1.000      1.181  23.000
  152 2.540 2.193  2.887 1.000 1.00000 2.540 1.000      1.013  23.000
  153 2.500 2.157  2.843 1.000 1.00000 2.500 1.000      0.166  23.000
  154 2.630 2.274  2.986 1.000 1.00000 2.630 1.000     10.335  23.000
  155 2.620 2.265  2.975 1.000 1.00000 2.620 1.000      7.155  23.000
  156 2.610 2.256  2.964 1.000 1.00000 2.610 1.000      8.535  23.000
  157 2.500 2.157  2.843 1.000 1.00000 2.500 1.000      0.123  23.000
  158 2.560 2.211  2.909 1.000 1.00000 2.560 1.000      4.682  23.000
  159 2.550 2.202  2.898 1.000 1.00000 2.550 1.000      3.258  23.000
  160 2.470 2.130  2.810 1.000 1.00000 2.470 1.000      0.685  23.000
  161 2.530 2.184  2.876 1.000 1.00000 2.530 1.000      0.415  23.000
  162 2.490 2.148  2.832 1.000 1.00000 2.490 1.000      1.795  23.000
  163 2.600 2.247  2.953 1.000 1.00000 2.600 1.000      3.124  23.000
  164 2.510 2.166  2.854 1.000 1.00000 2.510 1.000      0.206  23.000
  165 2.490 2.148  2.832 1.000 1.00000 2.490 1.000      0.158  23.000
  166 2.530 2.184  2.876 1.000 1.00000 2.530 1.000      0.461  23.000
  167 2.560 2.211  2.909 1.000 1.00000 2.560 1.000      6.731  23.000
  168 2.500 2.157  2.843 1.000 1.00000 2.500 1.000      0.170  23.000
  169 2.550 2.202  2.898 1.000 1.00000 2.550 1.000      2.336  23.000
  170 2.510 2.166  2.854 1.000 1.00000 2.510 1.000      0.211  23.000
  171 2.560 2.211  2.909 1.000 1.00000 2.550 1.000      0.873  23.000
  172 2.470 2.130  2.810 1.000 1.00000 2.470 1.000      1.263  23.000
  173 2.580 2.229  2.931 1.000 1.00000 2.580 1.000      1.894  23.000
  174 2.460 2.121  2.799 1.000 1.00000 2.460 1.000      4.031  23.000
  175 2.460 2.121  2.799 1.000 1.00000 2.460 1.000      1.866  23.000
  176 2.570 2.220  2.920 1.000 1.00000 2.570 1.000      6.945  23.000
  177 2.550 2.202  2.898 1.000 1.00000 2.550 1.000      7.094  23.000
  178 2.590 2.238  2.942 1.000 1.00000 2.590 1.000      4.622  23.000
  179 2.470 2.130  2.810 1.000 1.00000 2.470 1.000      1.018  23.000
  180 2.650 2.292  3.008 1.000 1.00000 2.650 1.000      5.793  23.000
  181 2.470 2.130  2.810 1.000 1.00000 2.470 1.000      1.271  23.000
  182 2.440 2.103  2.777 1.000 1.00000 2.440 1.000      4.755  23.000
  183 2.640 2.283  2.997 1.000 1.00000 2.640 1.000      7.922  23.000
  184 2.540 2.193  2.887 1.000 1.00000 2.540 1.000      0.986  23.000
  185 2.510 2.166  2.854 1.000 1.00000 2.520 1.000      3.176  23.000
  186 2.470 2.130  2.810 1.000 1.00000 2.470 1.000      0.718  23.000
  187 2.550 2.202  2.898 1.000 1.00000 2.550 1.000      1.213  23.000
  188 2.540 2.193  2.887 1.000 1.00000 2.540 1.000      1.645  23.000
  189 2.540 2.193  2.887 1.000 1.00000 2.540 1.000      3.694  23.000
  190 2.530 2.184  2.876 1.000 1.00000 2.540 1.000      0.623  23.000
  191 2.540 2.193  2.887 1.000 1.00000 2.540 1.000      3.784  23.000
  192 2.620 2.265  2.975 1.000 1.00000 2.620 1.000      8.602  23.000
  193 2.640 2.283  2.997 1.000 1.00000 2.640 1.000     12.012  23.000
  194 2.540 2.193  2.887 1.000 1.00000 2.540 1.000      2.578  23.000
  195 2.570 2.220  2.920 1.000 1.00000 2.570 1.000      4.693  23.000
  196 2.460 2.121  2.799 1.000 1.00000 2.460 1.000      3.652  23.000
  197 2.570 2.220  2.920 1.000 1.00000 2.570 1.000      6.003  23.000
  198 2.530 2.184  2.876 1.000 1.00000 2.530 1.000      0.336  23.000
  199 2.560 2.211  2.909 1.000 1.00000 2.570 1.000      5.232  23.000
  200 2.560 2.211  2.909 1.000 1.00000 2.570 1.000      6.976  23.000
  201 2.480 2.139  2.821 1.000 1.00000 2.480 1.000      0.610  23.000
  202 2.650 2.292  3.008 1.000 1.00000 2.650 1.000      7.931  23.000
  203 2.540 2.193  2.887 1.000 1.00000 2.540 1.000      0.971  23.000
  204 2.610 2.256  2.964 1.000 1.00000 2.610 1.000      7.295  23.000
  205 2.650 2.292  3.008 1.000 1.00000 2.650 1.000      6.324  23.000
  206 2.630 2.274  2.986 1.000 1.00000 2.630 1.000     13.082  23.000
  207 2.550 2.202  2.898 1.000 1.00000 2.550 1.000      1.648  23.000
  208 2.620 2.265  2.975 1.000 1.00000 2.620 1.000      6.358  23.000
  209 2.540 2.193  2.887 1.000 1.00000 2.540 1.000      2.441  23.000
  210 2.640 2.283  2.997 1.000 1.00000 2.640 1.000     10.363  23.000
  211 2.560 2.211  2.909 1.000 1.00000 2.560 1.000      1.289  23.000
  212 2.610 2.256  2.964 1.000 1.00000 2.610 1.000      9.037  23.000
  213 2.480 2.139  2.821 1.000 1.00000 2.480 1.000      3.964  23.000
  214 2.540 2.193  2.887 1.000 1.00000 2.540 1.000      6.436  23.000
  215 2.450 2.112  2.788 1.000 1.00000 2.450 1.000      2.653  23.000
  216 2.550 2.202  2.898 1.000 1.00000 2.550 1.000      1.923  23.000
  217 2.530 2.184  2.876 1.000 1.00000 2.530 1.000      1.962  23.000
  218 2.580 2.229  2.931 1.000 1.00000 2.580 1.000      2.869  23.000
  219 2.590 2.238  2.942 1.000 1.00000 2.590 1.000      2.066  23.000
  220 2.520 2.175  2.865 1.000 1.00000 2.520 1.000      1.054  23.000
  221 2.550 2.202  2.898 1.000 1.00000 2.550 1.000      4.685  23.000
  222 2.550 2.202  2.898 1.000 1.00000 2.550 1.000      5.302  23.000
  223 2.540 2.193  2.887 1.000 1.00000 2.540 1.000      1.853  23.000
  224 2.550 2.202  2.898 1.000 1.00000 2.550 1.000      0.877  23.000
  225 2.590 2.238  2.942 1.000 1.00000 2.590 1.000      4.820  23.000
  226 2.540 2.193  2.887 1.000 1.00000 2.540 1.000      1.764  23.000
  227 2.570 2.220  2.920 1.000 1.00000 2.570 1.000      2.456  23.000
  228 2.540 2.193  2.887 1.000 1.00000 2.540 1.000      4.386  23.000
  229 2.560 2.211  2.909 1.000 1.00000 2.560 1.000      2.680  23.000
  230 2.540 2.193  2.887 1.000 1.00000 2.540 1.000      2.154  23.000
  231 2.530 2.184  2.876 1.000 1.00000 2.540 1.000      0.501  23.000
  232 2.600 2.247  2.953 1.000 1.00000 2.600 1.000      6.019  23.000
  233 2.540 2.193  2.887 1.000 1.00000 2.540 1.000      2.326  23.000
  234 2.620 2.265  2.975 1.000 1.00000 2.620 1.000     10.159  23.000
  235 2.500 2.157  2.843 1.000 1.00000 2.500 1.000      0.093  23.000
  236 2.550 2.202  2.898 1.000 1.00000 2.550 1.000      2.837  23.000
  237 2.490 2.148  2.832 1.000 1.00000 2.490 1.000      1.236  23.000
  238 2.570 2.220  2.920 1.000 1.00000 2.570 1.000      2.026  23.000
  239 2.540 2.193  2.887 1.000 1.00000 2.540 1.000      1.640  23.000
  240 2.580 2.229  2.931 1.000 1.00000 2.580 1.000      0.983  23.000
  241 2.540 2.193  2.887 1.000 1.00000 2.540 1.000      4.664  23.000
  242 2.540 2.193  2.887 1.000 1.00000 2.540 1.000      0.732  23.000
  243 2.550 2.202  2.898 1.000 1.00000 2.550 1.000      2.460  23.000
  244 2.530 2.184  2.876 1.000 1.00000 2.540 1.000      0.514  23.000
  245 2.510 2.166  2.854 1.000 1.00000 2.510 1.000      0.382  23.000
  246 2.610 2.256  2.964 1.000 1.00000 2.610 1.000      7.870  23.000
  247 2.610 2.256  2.964 1.000 1.00000 2.610 1.000      6.049  23.000
  248 2.540 2.193  2.887 1.000 1.00000 2.540 1.000      0.909  23.000
  249 2.560 2.211  2.909 1.000 1.00000 2.560 1.000      4.972  23.000
  250 2.630 2.274  2.986 1.000 1.00000 2.630 1.000      9.514  23.000
  251 2.540 2.193  2.887 1.000 1.00000 2.540 1.000      1.585  23.000
  252 2.520 2.175  2.865 1.000 1.00000 2.520 1.000      0.287  23.000
  253 2.610 2.256  2.964 1.000 1.00000 2.620 1.000      7.547  23.000
  254 2.570 2.220  2.920 1.000 1.00000 2.570 1.000      7.510  23.000
  255 2.560 2.211  2.909 1.000 1.00000 2.560 1.000      6.472  23.000
  256 2.530 2.184  2.876 1.000 1.00000 2.530 1.000      0.608  23.000
  257 2.540 2.193  2.887 1.000 1.00000 2.540 1.000      0.979  23.000
  258 2.540 2.193  2.887 1.000 1.00000 2.540 1.000      2.472  23.000
  259 2.520 2.175  2.865 1.000 1.00000 2.520 1.000      0.746  23.000
  260 2.540 2.193  2.887 1.000 1.00000 2.540 1.000      1.393  23.000
  261 2.510 2.166  2.854 1.000 1.00000 2.510 1.000      0.152  23.000
  262 2.640 2.283  2.997 1.000 1.00000 2.640 1.000      5.143  23.000
  263 2.550 2.202  2.898 1.000 1.00000 2.550 1.000      0.871  23.000
  264 2.660 2.301  3.019 1.000 1.00000 2.660 1.000     27.671  23.000
  265 2.620 2.265  2.975 1.000 1.00000 2.620 1.000      3.241  23.000
  266 2.570 2.220  2.920 1.000 1.00000 2.570 1.000      1.407  23.000
  267 2.570 2.220  2.920 1.000 1.00000 2.570 1.000      1.847  23.000
  268 2.510 2.166  2.854 1.000 1.00000 2.510 1.000      0.152  23.000
  269 2.610 2.256  2.964 1.000 1.00000 2.610 1.000      6.652  23.000
  270 2.540 2.193  2.887 1.000 1.00000 2.540 1.000      2.242  23.000
  271 2.500 2.157  2.843 1.000 1.00000 2.490 1.000      2.513  23.000
  272 2.540 2.193  2.887 1.000 1.00000 2.540 1.000      1.230  23.000
  273 2.520 2.175  2.865 1.000 1.00000 2.520 1.000      0.323  23.000
  274 2.570 2.220  2.920 1.000 1.00000 2.570 1.000      3.210  23.000
  275 2.560 2.211  2.909 1.000 1.00000 2.550 1.000      1.412  23.000
  276 2.510 2.166  2.854 1.000 1.00000 2.510 1.000      0.448  23.000
  277 2.600 2.247  2.953 1.000 1.00000 2.600 1.000      5.579  23.000
  278 2.600 2.247  2.953 1.000 1.00000 2.610 1.000      6.578  23.000
  279 2.570 2.220  2.920 1.000 1.00000 2.570 1.000      1.276  23.000
  280 2.570 2.220  2.920 1.000 1.00000 2.570 1.000      2.351  23.000
  281 2.560 2.211  2.909 1.000 1.00000 2.560 1.000      1.283  23.000
  282 2.600 2.247  2.953 1.000 1.00000 2.600 1.000      4.572  23.000
  283 2.560 2.211  2.909 1.000 1.00000 2.560 1.000      5.300  23.000
  284 2.610 2.256  2.964 1.000 1.00000 2.610 1.000      6.527  23.000
  285 2.460 2.121  2.799 1.000 1.00000 2.460 1.000      1.807  23.000
  286 2.620 2.265  2.975 1.000 1.00000 2.620 1.000      9.892  23.000
  287 2.530 2.184  2.876 1.000 1.00000 2.530 1.000      0.758  23.000
  288 2.530 2.184  2.876 1.000 1.00000 2.540 1.000      0.855  23.000
  289 2.640 2.283  2.997 1.000 1.00000 2.640 1.000      2.558  23.000
  290 2.570 2.220  2.920 1.000 1.00000 2.570 1.000      2.044  23.000
  291 2.520 2.175  2.865 1.000 1.00000 2.520 1.000      0.306  23.000
  292 2.560 2.211  2.909 1.000 1.00000 2.560 1.000      5.828  23.000
  293 2.550 2.202  2.898 1.000 1.00000 2.550 1.000      0.852  23.000
  294 2.540 2.193  2.887 1.000 1.00000 2.540 1.000      1.750  23.000
  295 2.510 2.166  2.854 1.000 1.00000 2.510 1.000      0.208  23.000
  296 2.650 2.292  3.008 1.000 1.00000 2.650 1.000     13.066  23.000
  297 2.540 2.193  2.887 1.000 1.00000 2.540 1.000      2.357  23.000
  298 2.550 2.202  2.898 1.000 1.00000 2.550 1.000      4.094  23.000
  299 2.540 2.193  2.887 1.000 1.00000 2.540 1.000      0.798  23.000
  300 2.610 2.256  2.964 1.000 1.00000 2.610 1.000      3.674  23.000
  301 2.600 2.247  2.953 1.000 1.00000 2.600 1.000      7.390  23.000
  302 2.570 2.220  2.920 1.000 1.00000 2.570 1.000      3.811  23.000
  303 2.480 2.139  2.821 1.000 1.00000 2.480 1.000      1.124  23.000
  304 2.540 2.193  2.887 1.000 1.00000 2.540 1.000      2.511  23.000
  305 2.540 2.193  2.887 1.000 1.00000 2.540 1.000      2.522  23.000
  306 2.550 2.202  2.898 1.000 1.00000 2.550 1.000      2.312  23.000
  307 2.580 2.229  2.931 1.000 1.00000 2.580 1.000      7.468  23.000
  308 2.570 2.220  2.920 1.000 1.00000 2.570 1.000      2.783  23.000
  309 2.650 2.292  3.008 1.000 1.00000 2.650 1.000     11.206  23.000
  310 2.510 2.166  2.854 1.000 1.00000 2.510 1.000      0.169  23.000
  311 2.570 2.220  2.920 1.000 1.00000 2.570 1.000      6.346  23.000
  312 2.600 2.247  2.953 1.000 1.00000 2.600 1.000      1.166  23.000
  313 2.570 2.220  2.920 1.000 1.00000 2.570 1.000      5.996  23.000
  314 2.530 2.184  2.876 1.000 1.00000 2.530 1.000      0.501  23.000
  315 2.540 2.193  2.887 1.000 1.00000 2.540 1.000      0.702  23.000
  316 2.520 2.175  2.865 1.000 1.00000 2.520 1.000      0.374  23.000
  317 2.580 2.229  2.931 1.000 1.00000 2.580 1.000      2.097  23.000
  318 2.530 2.184  2.876 1.000 1.00000 2.530 1.000      0.354  23.000
  319 2.490 2.148  2.832 1.000 1.00000 2.490 1.000      0.527  23.000
  320 2.570 2.220  2.920 1.000 1.00000 2.570 1.000      1.292  23.000
  321 2.570 2.220  2.920 1.000 1.00000 2.570 1.000      1.919  23.000
  322 2.460 2.121  2.799 1.000 1.00000 2.450 1.000      3.129  23.000
  323 2.540 2.193  2.887 1.000 1.00000 2.540 1.000      1.405  23.000
  324 2.520 2.175  2.865 1.000 1.00000 2.520 1.000      0.184  23.000
  325 2.540 2.193  2.887 1.000 1.00000 2.540 1.000      2.389  23.000
  326 2.570 2.220  2.920 1.000 1.00000 2.570 1.000      4.313  23.000
  327 2.490 2.148  2.832 1.000 1.00000 2.490 1.000      0.235  23.000
  328 2.540 2.193  2.887 1.000 1.00000 2.540 1.000      0.783  23.000
  329 2.560 2.211  2.909 1.000 1.00000 2.560 1.000      0.969  23.000
  330 2.540 2.193  2.887 1.000 1.00000 2.540 1.000      2.879  23.000
  331 2.570 2.220  2.920 1.000 1.00000 2.570 1.000      2.650  23.000
  332 2.570 2.220  2.920 1.000 1.00000 2.570 1.000      9.273  23.000
  333 2.630 2.274  2.986 1.000 1.00000 2.630 1.000     15.116  23.000
  334 2.640 2.283  2.997 1.000 1.00000 2.640 1.000      8.458  23.000
  335 2.520 2.175  2.865 1.000 1.00000 2.520 1.000      0.260  23.000
  336 2.610 2.256  2.964 1.000 1.00000 2.610 1.000      6.678  23.000
  337 2.390 2.058  2.722 1.000 1.00000 2.400 1.000     16.417  23.000
  338 2.540 2.193  2.887 1.000 1.00000 2.540 1.000      2.322  23.000
  339 2.510 2.166  2.854 1.000 1.00000 2.510 1.000      0.782  23.000
  340 2.600 2.247  2.953 1.000 1.00000 2.600 1.000      4.069  23.000
  341 2.600 2.247  2.953 1.000 1.00000 2.600 1.000      5.890  23.000
  342 2.560 2.211  2.909 1.000 1.00000 2.560 1.000      5.378  23.000
  343 2.610 2.256  2.964 1.000 1.00000 2.610 1.000      3.876  23.000
  344 2.500 2.157  2.843 1.000 1.00000 2.500 1.000      0.357  23.000
  345 2.550 2.202  2.898 1.000 1.00000 2.550 1.000      2.727  23.000
  346 2.520 2.175  2.865 1.000 1.00000 2.520 1.000      0.366  23.000
  347 2.530 2.184  2.876 1.000 1.00000 2.530 1.000      1.477  23.000
  348 2.630 2.274  2.986 1.000 1.00000 2.630 1.000      8.632  23.000
  349 2.650 2.292  3.008 1.000 1.00000 2.650 1.000     13.465  23.000
  350 2.470 2.130  2.810 1.000 1.00000 2.470 1.000      2.101  23.000
  351 2.650 2.292  3.008 1.000 1.00000 2.650 1.000     13.643  23.000
  352 2.540 2.193  2.887 1.000 1.00000 2.540 1.000      2.349  23.000
  353 2.500 2.157  2.843 1.000 1.00000 2.500 1.000      0.754  23.000
  354 2.510 2.166  2.854 1.000 1.00000 2.510 1.000      0.346  23.000
  355 2.510 2.166  2.854 1.000 1.00000 2.520 1.000      0.720  23.000
  356 2.570 2.220  2.920 1.000 1.00000 2.570 1.000      2.348  23.000
  357 2.610 2.256  2.964 1.000 1.00000 2.610 1.000      9.919  23.000
  358 2.550 2.202  2.898 1.000 1.00000 2.550 1.000      3.149  23.000
  359 2.490 2.148  2.832 1.000 1.00000 2.490 1.000      0.302  23.000
  360 2.460 2.121  2.799 1.000 1.00000 2.460 1.000      1.652  23.000
  361 2.530 2.184  2.876 1.000 1.00000 2.530 1.000      0.340  23.000
  362 2.530 2.184  2.876 1.000 1.00000 2.530 1.000      0.600  23.000
  363 2.580 2.229  2.931 1.000 1.00000 2.580 1.000      4.398  23.000
  364 2.640 2.283  2.997 1.000 1.00000 2.640 1.000      3.946  23.000
  365 2.520 2.175  2.865 1.000 1.00000 2.520 1.000      0.237  23.000
  366 2.620 2.265  2.975 1.000 1.00000 2.620 1.000      4.612  23.000
  367 2.520 2.175  2.865 1.000 1.00000 2.520 1.000      0.289  23.000
  368 2.550 2.202  2.898 1.000 1.00000 2.550 1.000      2.150  23.000
  369 2.570 2.220  2.920 1.000 1.00000 2.570 1.000      8.846  23.000
  370 2.510 2.166  2.854 1.000 1.00000 2.510 1.000      1.085  23.000
  371 2.610 2.256  2.964 1.000 1.00000 2.610 1.000      1.793  23.000
  372 2.580 2.229  2.931 1.000 1.00000 2.580 1.000      6.781  23.000
  373 2.550 2.202  2.898 1.000 1.00000 2.550 1.000      3.375  23.000
  374 2.560 2.211  2.909 1.000 1.00000 2.560 1.000      8.457  23.000
  375 2.630 2.274  2.986 1.000 1.00000 2.630 1.000      4.085  23.000
  376 2.540 2.193  2.887 1.000 1.00000 2.540 1.000      2.444  23.000
  377 2.560 2.211  2.909 1.000 1.00000 2.560 1.000      1.057  23.000
  378 2.640 2.283  2.997 1.000 1.00000 2.640 1.000      8.350  23.000
  379 2.560 2.211  2.909 1.000 1.00000 2.570 1.000      4.118  23.000
  380 2.640 2.283  2.997 1.000 1.00000 2.640 1.000      7.185  23.000
  381 2.470 2.130  2.810 1.000 1.00000 2.470 1.000      1.077  23.000
  382 2.630 2.274  2.986 1.000 1.00000 2.630 1.000     13.415  23.000
  383 2.540 2.193  2.887 1.000 1.00000 2.540 1.000      2.213  23.000
  384 2.520 2.175  2.865 1.000 1.00000 2.520 1.000      0.563  23.000
  385 2.570 2.220  2.920 1.000 1.00000 2.570 1.000      2.481  23.000
  386 2.580 2.229  2.931 1.000 1.00000 2.580 1.000      7.641  23.000
  387 2.500 2.157  2.843 1.000 1.00000 2.500 1.000      0.071  23.000
  388 2.580 2.229  2.931 1.000 1.00000 2.580 1.000      7.512  23.000
  389 2.530 2.184  2.876 1.000 1.00000 2.540 1.000      0.586  23.000
  390 2.490 2.148  2.832 1.000 1.00000 2.490 1.000      1.875  23.000
  391 2.490 2.148  2.832 1.000 1.00000 2.490 1.000      0.159  23.000
  392 2.640 2.283  2.997 1.000 1.00000 2.640 1.000      4.629  23.000
  393 2.540 2.193  2.887 1.000 1.00000 2.540 1.000      2.979  23.000
  394 2.550 2.202  2.898 1.000 1.00000 2.550 1.000      5.278  23.000
  395 2.470 2.130  2.810 1.000 1.00000 2.470 1.000      1.434  23.000
  396 2.560 2.211  2.909 1.000 1.00000 2.560 1.000      3.388  23.000
  397 2.550 2.202  2.898 1.000 1.00000 2.550 1.000      5.424  23.000
  398 2.570 2.220  2.920 1.000 1.00000 2.570 1.000      4.165  23.000
  399 2.590 2.238  2.942 1.000 1.00000 2.590 1.000      3.554  23.000
  400 2.470 2.130  2.810 1.000 1.00000 2.460 1.000      1.356  23.000
  401 2.470 2.130  2.810 1.000 1.00000 2.470 1.000      0.698  23.000
  402 2.540 2.193  2.887 1.000 1.00000 2.540 1.000      2.255  23.000
  403 2.630 2.274  2.986 1.000 1.00000 2.630 1.000      8.237  23.000
  404 2.530 2.184  2.876 1.000 1.00000 2.540 1.000      1.492  23.000
  405 2.570 2.220  2.920 1.000 1.00000 2.570 1.000      5.852  23.000
  406 2.540 2.193  2.887 1.000 1.00000 2.540 1.000      1.953  23.000
  407 2.600 2.247  2.953 1.000 1.00000 2.600 1.000      4.020  23.000
  408 2.540 2.193  2.887 1.000 1.00000 2.540 1.000      0.980  23.000
  409 2.650 2.292  3.008 1.000 1.00000 2.650 1.000     20.131  23.000
  410 2.510 2.166  2.854 1.000 1.00000 2.510 1.000      0.417  23.000
  411 2.470 2.130  2.810 1.000 1.00000 2.460 1.000      1.073  23.000
  412 2.590 2.238  2.942 1.000 1.00000 2.590 1.000      4.153  23.000
  413 2.510 2.166  2.854 1.000 1.00000 2.510 1.000      0.806  23.000
  414 2.640 2.283  2.997 1.000 1.00000 2.640 1.000      6.800  23.000
  415 2.510 2.166  2.854 1.000 1.00000 2.510 1.000      1.102  23.000
  416 2.550 2.202  2.898 1.000 1.00000 2.550 1.000      2.032  23.000
  417 2.480 2.139  2.821 1.000 1.00000 2.480 1.000      1.166  23.000
  418 2.520 2.175  2.865 1.000 1.00000 2.520 1.000      0.827  23.000
  419 2.550 2.202  2.898 1.000 1.00000 2.550 1.000      3.091  23.000
  420 2.560 2.211  2.909 1.000 1.00000 2.560 1.000      2.633  23.000
  421 2.540 2.193  2.887 1.000 1.00000 2.540 1.000      2.174  23.000
  422 2.510 2.166  2.854 1.000 1.00000 2.520 1.000      0.331  23.000
  423 2.520 2.175  2.865 1.000 1.00000 2.510 1.000      2.056  23.000
  424 2.610 2.256  2.964 1.000 1.00000 2.610 1.000      9.504  23.000
  425 2.610 2.256  2.964 1.000 1.00000 2.610 1.000      7.339  23.000
  426 2.550 2.202  2.898 1.000 1.00000 2.550 1.000      1.787  23.000
  427 2.550 2.202  2.898 1.000 1.00000 2.550 1.000      2.904  23.000
  428 2.590 2.238  2.942 1.000 1.00000 2.590 1.000      1.459  23.000
  429 2.450 2.112  2.788 1.000 1.00000 2.450 1.000      8.618  23.000
  430 2.550 2.202  2.898 1.000 1.00000 2.550 1.000      3.770  23.000
  431 2.550 2.202  2.898 1.000 1.00000 2.550 1.000      4.034  23.000
  432 2.600 2.247  2.953 1.000 1.00000 2.600 1.000      7.659  23.000
  433 2.630 2.274  2.986 1.000 1.00000 2.630 1.000      4.919  23.000
  434 2.440 2.103  2.777 1.000 1.00000 2.440 1.000      3.539  23.000
  435 2.530 2.184  2.876 1.000 1.00000 2.530 1.000      1.864  23.000
  436 2.550 2.202  2.898 1.000 1.00000 2.550 1.000      0.675  23.000
  437 2.650 2.292  3.008 1.000 1.00000 2.650 1.000      8.960  23.000
  438 2.540 2.193  2.887 1.000 1.00000 2.540 1.000      1.398  23.000
  439 2.610 2.256  2.964 1.000 1.00000 2.610 1.000      1.818  23.000
  440 2.530 2.184  2.876 1.000 1.00000 2.530 1.000      0.384  23.000
  441 2.530 2.184  2.876 1.000 1.00000 2.540 1.000      0.754  23.000
  442 2.480 2.139  2.821 1.000 1.00000 2.480 1.000      0.497  23.000
  443 2.470 2.130  2.810 1.000 1.00000 2.470 1.000      2.075  23.000
  444 2.490 2.148  2.832 1.000 1.00000 2.490 1.000      0.460  23.000
  445 2.500 2.157  2.843 1.000 1.00000 2.500 1.000      1.285  23.000
  446 2.490 2.148  2.832 1.000 1.00000 2.490 1.000      2.785  23.000
  447 2.530 2.184  2.876 1.000 1.00000 2.530 1.000      0.465  23.000
  448 2.510 2.166  2.854 1.000 1.00000 2.510 1.000      0.151  23.000
  449 2.470 2.130  2.810 1.000 1.00000 2.480 1.000      2.304  23.000
  450 2.420 2.085  2.755 1.000 1.00000 2.420 1.000     14.374  23.000
  451 2.450 2.112  2.788 1.000 1.00000 2.450 1.000      6.023  23.000
  452 2.500 2.157  2.843 1.000 1.00000 2.500 1.000      0.414  23.000
  453 2.520 2.175  2.865 1.000 1.00000 2.520 1.000      0.492  23.000
  454 2.550 2.202  2.898 1.000 1.00000 2.550 1.000      4.321  23.000
  455 2.590 2.238  2.942 1.000 1.00000 2.590 1.000      2.939  23.000
  456 2.530 2.184  2.876 1.000 1.00000 2.540 1.000      0.602  23.000
  457 2.570 2.220  2.920 1.000 1.00000 2.570 1.000      3.267  23.000
  458 2.490 2.148  2.832 1.000 1.00000 2.490 1.000      1.367  23.000
  459 2.550 2.202  2.898 1.000 1.00000 2.550 1.000      2.198  23.000
  460 2.490 2.148  2.832 1.000 1.00000 2.500 1.000      1.668  23.000
  461 2.550 2.202  2.898 1.000 1.00000 2.550 1.000     10.629  23.000
  462 2.600 2.247  2.953 1.000 1.00000 2.600 1.000      6.207  23.000
  463 2.550 2.202  2.898 1.000 1.00000 2.550 1.000      1.221  23.000
  464 2.540 2.193  2.887 1.000 1.00000 2.540 1.000      2.485  23.000
  465 2.550 2.202  2.898 1.000 1.00000 2.550 1.000      0.644  23.000
  466 2.630 2.274  2.986 1.000 1.00000 2.630 1.000      7.259  23.000
  467 2.570 2.220  2.920 1.000 1.00000 2.570 1.000      5.818  23.000
  468 2.500 2.157  2.843 1.000 1.00000 2.500 1.000      0.392  23.000
  469 2.540 2.193  2.887 1.000 1.00000 2.540 1.000      4.545  23.000
  470 2.560 2.211  2.909 1.000 1.00000 2.560 1.000      3.815  23.000
  471 2.590 2.238  2.942 1.000 1.00000 2.590 1.000      4.893  23.000
  472 2.530 2.184  2.876 1.000 1.00000 2.540 1.000      0.900  23.000
  473 2.540 2.193  2.887 1.000 1.00000 2.540 1.000      1.436  23.000
  474 2.630 2.274  2.986 1.000 1.00000 2.630 1.000      9.495  23.000
  475 2.540 2.193  2.887 1.000 1.00000 2.540 1.000      2.249  23.000
  476 2.460 2.121  2.799 1.000 1.00000 2.460 1.000      1.103  23.000
  477 2.450 2.112  2.788 1.000 1.00000 2.450 1.000      7.164  23.000
  478 2.500 2.157  2.843 1.000 1.00000 2.500 1.000      1.967  23.000
  479 2.610 2.256  2.964 1.000 1.00000 2.610 1.000      1.364  23.000
  480 2.480 2.139  2.821 1.000 1.00000 2.480 1.000      0.797  23.000
  481 2.520 2.175  2.865 1.000 1.00000 2.520 1.000      0.215  23.000
  482 2.590 2.238  2.942 1.000 1.00000 2.590 1.000      5.613  23.000
  483 2.480 2.139  2.821 1.000 1.00000 2.480 1.000      0.733  23.000
  484 2.630 2.274  2.986 1.000 1.00000 2.630 1.000     10.568  23.000
  485 2.580 2.229  2.931 1.000 1.00000 2.580 1.000      1.033  23.000
  486 2.550 2.202  2.898 1.000 1.00000 2.550 1.000      3.074  23.000
  487 2.580 2.229  2.931 1.000 1.00000 2.580 1.000      4.878  23.000
  488 2.520 2.175  2.865 1.000 1.00000 2.520 1.000      0.484  23.000
  489 2.550 2.202  2.898 1.000 1.00000 2.550 1.000      1.656  23.000
  490 2.530 2.184  2.876 1.000 1.00000 2.540 1.000      2.993  23.000
  491 2.560 2.211  2.909 1.000 1.00000 2.560 1.000      1.222  23.000
  492 2.550 2.202  2.898 1.000 1.00000 2.550 1.000      2.744  23.000
  493 2.540 2.193  2.887 1.000 1.00000 2.540 1.000      1.596  23.000
  494 2.540 2.193  2.887 1.000 1.00000 2.540 1.000      1.674  23.000
  495 2.610 2.256  2.964 1.000 1.00000 2.610 1.000      5.077  23.000
  496 2.610 2.256  2.964 1.000 1.00000 2.610 1.000      5.664  23.000
  497 2.550 2.202  2.898 1.000 1.00000 2.550 1.000      5.661  23.000
  498 2.490 2.148  2.832 1.000 1.00000 2.490 1.000      0.581  23.000
  499 2.500 2.157  2.843 1.000 1.00000 2.500 1.000      0.553  23.000
  500 2.660 2.301  3.019 1.000 1.00000 2.660 1.000     14.025  23.000
  501 2.520 2.175  2.865 1.000 1.00000 2.520 1.000      0.562  23.000
  502 2.650 2.292  3.008 1.000 1.00000 2.650 1.000      9.793  23.000
  503 2.600 2.247  2.953 1.000 1.00000 2.600 1.000      1.100  23.000
  504 2.620 2.265  2.975 1.000 1.00000 2.620 1.000      9.090  23.000
  505 2.530 2.184  2.876 1.000 1.00000 2.530 1.000      1.406  23.000
  506 2.530 2.184  2.876 1.000 1.00000 2.530 1.000      1.395  23.000
  507 2.540 2.193  2.887 1.000 1.00000 2.540 1.000      1.248  23.000
  508 2.560 2.211  2.909 1.000 1.00000 2.560 1.000      2.671  23.000
  509 2.570 2.220  2.920 1.000 1.00000 2.570 1.000     10.436  23.000
  510 2.550 2.202  2.898 1.000 1.00000 2.550 1.000      1.949  23.000
  511 2.460 2.121  2.799 1.000 1.00000 2.460 1.000      3.691  23.000
  512 2.470 2.130  2.810 1.000 1.00000 2.470 1.000      2.739  23.000
  513 2.600 2.247  2.953 1.000 1.00000 2.600 1.000      2.663  23.000
  514 2.550 2.202  2.898 1.000 1.00000 2.550 1.000      1.032  23.000
  515 2.640 2.283  2.997 1.000 1.00000 2.640 1.000      6.603  23.000
  516 2.550 2.202  2.898 1.000 1.00000 2.550 1.000      2.327  23.000
  517 2.570 2.220  2.920 1.000 1.00000 2.570 1.000      6.920  23.000
  518 2.550 2.202  2.898 1.000 1.00000 2.550 1.000      2.239  23.000
  519 2.540 2.193  2.887 1.000 1.00000 2.540 1.000      1.535  23.000
  520 2.540 2.193  2.887 1.000 1.00000 2.540 1.000      1.106  23.000
  521 2.620 2.265  2.975 1.000 1.00000 2.620 1.000      4.211  23.000
  522 2.500 2.157  2.843 1.000 1.00000 2.500 1.000      0.074  23.000
  523 2.460 2.121  2.799 1.000 1.00000 2.460 1.000      2.101  23.000
  524 2.470 2.130  2.810 1.000 1.00000 2.460 1.000      2.935  23.000
  525 2.550 2.202  2.898 1.000 1.00000 2.550 1.000      2.487  23.000
  526 2.460 2.121  2.799 1.000 1.00000 2.460 1.000      4.053  23.000
  527 2.660 2.301  3.019 1.000 1.00000 2.660 1.000     25.628  23.000
  528 2.570 2.220  2.920 1.000 1.00000 2.570 1.000      4.785  23.000
  529 2.650 2.292  3.008 1.000 1.00000 2.650 1.000     10.975  23.000
  530 2.590 2.238  2.942 1.000 1.00000 2.590 1.000      7.148  23.000
  531 2.540 2.193  2.887 1.000 1.00000 2.540 1.000      5.441  23.000
  532 2.520 2.175  2.865 1.000 1.00000 2.520 1.000      0.517  23.000
  533 2.560 2.211  2.909 1.000 1.00000 2.550 1.000      1.803  23.000
  534 2.570 2.220  2.920 1.000 1.00000 2.570 1.000      6.736  23.000
  535 2.550 2.202  2.898 1.000 1.00000 2.550 1.000      2.753  23.000
  536 2.440 2.103  2.777 1.000 1.00000 2.440 1.000      2.731  23.000
  537 2.480 2.139  2.821 1.000 1.00000 2.490 1.000      0.717  23.000
  538 2.540 2.193  2.887 1.000 1.00000 2.540 1.000      0.766  23.000
  539 2.640 2.283  2.997 1.000 1.00000 2.640 1.000      3.019  23.000
  540 2.590 2.238  2.942 1.000 1.00000 2.590 1.000      2.135  23.000
  541 2.540 2.193  2.887 1.000 1.00000 2.540 1.000      1.335  23.000
  542 2.450 2.112  2.788 1.000 1.00000 2.450 1.000      3.566  23.000
  543 2.500 2.157  2.843 1.000 1.00000 2.500 1.000      0.361  23.000
  544 2.540 2.193  2.887 1.000 1.00000 2.540 1.000      1.108  23.000
  545 2.560 2.211  2.909 1.000 1.00000 2.560 1.000      1.876  23.000
  546 2.540 2.193  2.887 1.000 1.00000 2.540 1.000      1.268  23.000
  547 2.530 2.184  2.876 1.000 1.00000 2.530 1.000      0.654  23.000
  548 2.530 2.184  2.876 1.000 1.00000 2.530 1.000      0.449  23.000
  549 2.480 2.139  2.821 1.000 1.00000 2.480 1.000      1.544  23.000
  550 2.530 2.184  2.876 1.000 1.00000 2.540 1.000      0.520  23.000
  551 2.550 2.202  2.898 1.000 1.00000 2.550 1.000      7.413  23.000
  552 2.620 2.265  2.975 1.000 1.00000 2.620 1.000      3.328  23.000
  553 2.440 2.103  2.777 1.000 1.00000 2.440 1.000      7.283  23.000
  554 2.580 2.229  2.931 1.000 1.00000 2.580 1.000      5.944  23.000
  555 2.550 2.202  2.898 1.000 1.00000 2.550 1.000      2.669  23.000
  556 2.620 2.265  2.975 1.000 1.00000 2.620 1.000      4.159  23.000
  557 2.650 2.292  3.008 1.000 1.00000 2.650 1.000     17.797  23.000
  558 2.520 2.175  2.865 1.000 1.00000 2.520 1.000      0.217  23.000
  559 2.520 2.175  2.865 1.000 1.00000 2.520 1.000      0.554  23.000
  560 2.440 2.103  2.777 1.000 1.00000 2.450 1.000      8.252  23.000
  561 2.550 2.202  2.898 1.000 1.00000 2.550 1.000      6.983  23.000
  562 2.570 2.220  2.920 1.000 1.00000 2.570 1.000      2.086  23.000
  563 2.430 2.094  2.766 1.000 1.00000 2.440 1.000      5.922  23.000
  564 2.490 2.148  2.832 1.000 1.00000 2.490 1.000      0.318  23.000
  565 2.480 2.139  2.821 1.000 1.00000 2.480 1.000      0.771  23.000
  566 2.460 2.121  2.799 1.000 1.00000 2.460 1.000      6.267  23.000
  567 2.640 2.283  2.997 1.000 1.00000 2.640 1.000      8.284  23.000
  568 2.620 2.265  2.975 1.000 1.00000 2.620 1.000      7.457  23.000
  569 2.540 2.193  2.887 1.000 1.00000 2.540 1.000      2.269  23.000
  570 2.540 2.193  2.887 1.000 1.00000 2.540 1.000      1.622  23.000
  571 2.550 2.202  2.898 1.000 1.00000 2.550 1.000      0.873  23.000
  572 2.530 2.184  2.876 1.000 1.00000 2.530 1.000      0.633  23.000
  573 2.520 2.175  2.865 1.000 1.00000 2.520 1.000      2.369  23.000
  574 2.480 2.139  2.821 1.000 1.00000 2.480 1.000      2.254  23.000
  575 2.480 2.139  2.821 1.000 1.00000 2.490 1.000      0.462  23.000
  576 2.530 2.184  2.876 1.000 1.00000 2.530 1.000      1.296  23.000
  577 2.540 2.193  2.887 1.000 1.00000 2.540 1.000      3.473  23.000
  578 2.520 2.175  2.865 1.000 1.00000 2.520 1.000      0.457  23.000
  579 2.610 2.256  2.964 1.000 1.00000 2.610 1.000      7.369  23.000
  580 2.540 2.193  2.887 1.000 1.00000 2.540 1.000      0.828  23.000
  581 2.590 2.238  2.942 1.000 1.00000 2.590 1.000      7.771  23.000
  582 2.560 2.211  2.909 1.000 1.00000 2.570 1.000      5.324  23.000
  583 2.570 2.220  2.920 1.000 1.00000 2.570 1.000      5.846  23.000
  584 2.540 2.193  2.887 1.000 1.00000 2.540 1.000      1.333  23.000
  585 2.580 2.229  2.931 1.000 1.00000 2.580 1.000      2.044  23.000
  586 2.530 2.184  2.876 1.000 1.00000 2.530 1.000      0.824  23.000
  587 2.670 2.310  3.030 1.000 1.00000 2.670 1.000     32.374  23.000
  588 2.590 2.238  2.942 1.000 1.00000 2.590 1.000      3.032  23.000
  589 2.530 2.184  2.876 1.000 1.00000 2.530 1.000      0.469  23.000
  590 2.620 2.265  2.975 1.000 1.00000 2.620 1.000     10.367  23.000
  591 2.550 2.202  2.898 1.000 1.00000 2.550 1.000      1.043  23.000
  592 2.650 2.292  3.008 1.000 1.00000 2.650 1.000     15.028  23.000
  593 2.460 2.121  2.799 1.000 1.00000 2.460 1.000      9.849  23.000
  594 2.540 2.193  2.887 1.000 1.00000 2.540 1.000      1.530  23.000
  595 2.610 2.256  2.964 1.000 1.00000 2.610 1.000      3.117  23.000
  596 2.610 2.256  2.964 1.000 1.00000 2.610 1.000      1.623  23.000
  597 2.600 2.247  2.953 1.000 1.00000 2.600 1.000     10.100  23.000
  598 2.610 2.256  2.964 1.000 1.00000 2.610 1.000      6.437  23.000
  599 2.630 2.274  2.986 1.000 1.00000 2.630 1.000      4.826  23.000
  600 2.590 2.238  2.942 1.000 1.00000 2.590 1.000      9.797  23.000
  601 2.570 2.220  2.920 1.000 1.00000 2.570 1.000      3.494  23.000
  602 2.580 2.229  2.931 1.000 1.00000 2.580 1.000      2.952  23.000
  603 2.640 2.283  2.997 1.000 1.00000 2.640 1.000     12.698  23.000
  604 2.630 2.274  2.986 1.000 1.00000 2.630 1.000      5.370  23.000
  605 2.530 2.184  2.876 1.000 1.00000 2.540 1.000      0.509  23.000
  606 2.540 2.193  2.887 1.000 1.00000 2.540 1.000      1.786  23.000
  607 2.530 2.184  2.876 1.000 1.00000 2.530 1.000      0.307  23.000
  608 2.510 2.166  2.854 1.000 1.00000 2.510 1.000      1.900  23.000
  609 2.590 2.238  2.942 1.000 1.00000 2.590 1.000      5.864  23.000
  610 2.490 2.148  2.832 1.000 1.00000 2.490 1.000      0.305  23.000
  611 2.460 2.121  2.799 1.000 1.00000 2.450 1.000      2.711  23.000
  612 2.600 2.247  2.953 1.000 1.00000 2.600 1.000      9.022  23.000
  613 2.520 2.175  2.865 1.000 1.00000 2.530 1.000      1.149  23.000
  614 2.650 2.292  3.008 1.000 1.00000 2.650 1.000     18.801  23.000
  615 2.440 2.103  2.777 1.000 1.00000 2.440 1.000      4.062  23.000
  616 2.590 2.238  2.942 1.000 1.00000 2.590 1.000      5.984  23.000
  617 2.530 2.184  2.876 1.000 1.00000 2.540 1.000      0.591  23.000
  618 2.580 2.229  2.931 1.000 1.00000 2.580 1.000      1.137  23.000
  619 2.550 2.202  2.898 1.000 1.00000 2.550 1.000      1.320  23.000
  620 2.550 2.202  2.898 1.000 1.00000 2.550 1.000      3.088  23.000
  621 2.490 2.148  2.832 1.000 1.00000 2.490 1.000      0.197  23.000
  622 2.590 2.238  2.942 1.000 1.00000 2.590 1.000      2.807  23.000
  623 2.620 2.265  2.975 1.000 1.00000 2.620 1.000     13.071  23.000
  624 2.570 2.220  2.920 1.000 1.00000 2.570 1.000      2.580  23.000
  625 2.570 2.220  2.920 1.000 1.00000 2.570 1.000      5.172  23.000
  626 2.540 2.193  2.887 1.000 1.00000 2.540 1.000      1.652  23.000
  627 2.580 2.229  2.931 1.000 1.00000 2.580 1.000      4.175  23.000
  628 2.600 2.247  2.953 1.000 1.00000 2.600 1.000      1.540  23.000
  629 2.620 2.265  2.975 1.000 1.00000 2.620 1.000     14.781  23.000
  630 2.460 2.121  2.799 1.000 1.00000 2.450 1.000      4.116  23.000
  631 2.540 2.193  2.887 1.000 1.00000 2.540 1.000      1.250  23.000
  632 2.530 2.184  2.876 1.000 1.00000 2.530 1.000      0.994  23.000
  633 2.560 2.211  2.909 1.000 1.00000 2.550 1.000      3.981  23.000
  634 2.490 2.148  2.832 1.000 1.00000 2.490 1.000      0.160  23.000
  635 2.560 2.211  2.909 1.000 1.00000 2.560 1.000      2.370  23.000
  636 2.460 2.121  2.799 1.000 1.00000 2.460 1.000      1.164  23.000
  637 2.590 2.238  2.942 1.000 1.00000 2.590 1.000      9.371  23.000
  638 2.500 2.157  2.843 1.000 1.00000 2.500 1.000      1.059  23.000
  639 2.570 2.220  2.920 1.000 1.00000 2.580 1.000      6.645  23.000
  640 2.510 2.166  2.854 1.000 1.00000 2.510 1.000      1.525  23.000
  641 2.560 2.211  2.909 1.000 1.00000 2.560 1.000      7.297  23.000
  642 2.550 2.202  2.898 1.000 1.00000 2.550 1.000      2.218  23.000
  643 2.520 2.175  2.865 1.000 1.00000 2.520 1.000      0.214  23.000
  644 2.500 2.157  2.843 1.000 1.00000 2.500 1.000      0.443  23.000
  645 2.540 2.193  2.887 1.000 1.00000 2.540 1.000      6.426  23.000
  646 2.470 2.130  2.810 1.000 1.00000 2.460 1.000      1.067  23.000
  647 2.540 2.193  2.887 1.000 1.00000 2.540 1.000      1.961  23.000
  648 2.580 2.229  2.931 1.000 1.00000 2.580 1.000      1.899  23.000
  649 2.520 2.175  2.865 1.000 1.00000 2.520 1.000      1.150  23.000
  650 2.550 2.202  2.898 1.000 1.00000 2.550 1.000      2.025  23.000
  651 2.560 2.211  2.909 1.000 1.00000 2.560 1.000      3.340  23.000
  652 2.550 2.202  2.898 1.000 1.00000 2.550 1.000      1.140  23.000
  653 2.550 2.202  2.898 1.000 1.00000 2.550 1.000      0.971  23.000
  654 2.550 2.202  2.898 1.000 1.00000 2.550 1.000      6.783  23.000
  655 2.540 2.193  2.887 1.000 1.00000 2.540 1.000      2.437  23.000
  656 2.510 2.166  2.854 1.000 1.00000 2.510 1.000      0.178  23.000
  657 2.550 2.202  2.898 1.000 1.00000 2.550 1.000      2.568  23.000
  658 2.490 2.148  2.832 1.000 1.00000 2.490 1.000      0.133  23.000
  659 2.550 2.202  2.898 1.000 1.00000 2.550 1.000      0.955  23.000
  660 2.540 2.193  2.887 1.000 1.00000 2.540 1.000      2.338  23.000
  661 2.540 2.193  2.887 1.000 1.00000 2.540 1.000      0.933  23.000
  662 2.530 2.184  2.876 1.000 1.00000 2.530 1.000      0.394  23.000
  663 2.610 2.256  2.964 1.000 1.00000 2.610 1.000      6.173  23.000
  664 2.560 2.211  2.909 1.000 1.00000 2.560 1.000      3.305  23.000
  665 2.500 2.157  2.843 1.000 1.00000 2.500 1.000      3.055  23.000
  666 2.530 2.184  2.876 1.000 1.00000 2.530 1.000      0.459  23.000
  667 2.490 2.148  2.832 1.000 1.00000 2.490 1.000      0.110  23.000
  668 2.610 2.256  2.964 1.000 1.00000 2.610 1.000      9.535  23.000
  669 2.540 2.193  2.887 1.000 1.00000 2.540 1.000      2.856  23.000
  670 2.550 2.202  2.898 1.000 1.00000 2.550 1.000      2.768  23.000
  671 2.580 2.229  2.931 1.000 1.00000 2.580 1.000      1.093  23.000
  672 2.450 2.112  2.788 1.000 1.00000 2.450 1.000      2.413  23.000
  673 2.540 2.193  2.887 1.000 1.00000 2.540 1.000      1.267  23.000
  674 2.500 2.157  2.843 1.000 1.00000 2.500 1.000      0.133  23.000
  675 2.530 2.184  2.876 1.000 1.00000 2.540 1.000      1.046  23.000
  676 2.540 2.193  2.887 1.000 1.00000 2.540 1.000      1.846  23.000
  677 2.550 2.202  2.898 1.000 1.00000 2.550 1.000      1.222  23.000
  678 2.510 2.166  2.854 1.000 1.00000 2.510 1.000      0.242  23.000
  679 2.540 2.193  2.887 1.000 1.00000 2.540 1.000      1.230  23.000
  680 2.460 2.121  2.799 1.000 1.00000 2.460 1.000      1.976  23.000
  681 2.580 2.229  2.931 1.000 1.00000 2.580 1.000      3.059  23.000
  682 2.510 2.166  2.854 1.000 1.00000 2.510 1.000      0.594  23.000
  683 2.500 2.157  2.843 1.000 1.00000 2.500 1.000      0.119  23.000
  684 2.550 2.202  2.898 1.000 1.00000 2.550 1.000      1.972  23.000
  685 2.510 2.166  2.854 1.000 1.00000 2.520 1.000      0.573  23.000
  686 2.500 2.157  2.843 1.000 1.00000 2.500 1.000      0.342  23.000
  687 2.550 2.202  2.898 1.000 1.00000 2.550 1.000      0.743  23.000
  688 2.580 2.229  2.931 1.000 1.00000 2.580 1.000      5.413  23.000
  689 2.510 2.166  2.854 1.000 1.00000 2.510 1.000      0.119  23.000
  690 2.390 2.058  2.722 1.000 1.00000 2.400 1.000      6.956  23.000
  691 2.560 2.211  2.909 1.000 1.00000 2.560 1.000      4.540  23.000
  692 2.530 2.184  2.876 1.000 1.00000 2.530 1.000      0.721  23.000
  693 2.550 2.202  2.898 1.000 1.00000 2.550 1.000      1.784  23.000
  694 2.530 2.184  2.876 1.000 1.00000 2.530 1.000      1.281  23.000
  695 2.480 2.139  2.821 1.000 1.00000 2.480 1.000      0.758  23.000
  696 2.610 2.256  2.964 1.000 1.00000 2.610 1.000      4.508  23.000
  697 2.520 2.175  2.865 1.000 1.00000 2.520 1.000      0.234  23.000
  698 2.580 2.229  2.931 1.000 1.00000 2.580 1.000      4.158  23.000
  699 2.590 2.238  2.942 1.000 1.00000 2.590 1.000      4.181  23.000
  700 2.590 2.238  2.942 1.000 1.00000 2.590 1.000      3.451  23.000
  701 2.570 2.220  2.920 1.000 1.00000 2.570 1.000      6.897  23.000
  702 2.510 2.166  2.854 1.000 1.00000 2.520 1.000      0.209  23.000
  703 2.510 2.166  2.854 1.000 1.00000 2.510 1.000      1.433  23.000
  704 2.540 2.193  2.887 1.000 1.00000 2.540 1.000      1.402  23.000
  705 2.530 2.184  2.876 1.000 1.00000 2.530 1.000      0.382  23.000
  706 2.640 2.283  2.997 1.000 1.00000 2.640 1.000     10.201  23.000
  707 2.660 2.301  3.019 1.000 1.00000 2.660 1.000     20.540  23.000
  708 2.540 2.193  2.887 1.000 1.00000 2.540 1.000      1.526  23.000
  709 2.620 2.265  2.975 1.000 1.00000 2.620 1.000      6.844  23.000
  710 2.620 2.265  2.975 1.000 1.00000 2.620 1.000      3.777  23.000
  711 2.530 2.184  2.876 1.000 1.00000 2.530 1.000      0.379  23.000
  712 2.540 2.193  2.887 1.000 1.00000 2.540 1.000      5.169  23.000
  713 2.460 2.121  2.799 1.000 1.00000 2.460 1.000      1.737  23.000
  714 2.490 2.148  2.832 1.000 1.00000 2.490 1.000      0.946  23.000
  715 2.540 2.193  2.887 1.000 1.00000 2.540 1.000      3.023  23.000
  716 2.540 2.193  2.887 1.000 1.00000 2.540 1.000      1.607  23.000
  717 2.590 2.238  2.942 1.000 1.00000 2.590 1.000      6.030  23.000
  718 2.440 2.103  2.777 1.000 1.00000 2.440 1.000      2.958  23.000
  719 2.470 2.130  2.810 1.000 1.00000 2.470 1.000      0.752  23.000
  720 2.520 2.175  2.865 1.000 1.00000 2.520 1.000      0.230  23.000
  721 2.520 2.175  2.865 1.000 1.00000 2.520 1.000      2.716  23.000
  722 2.550 2.202  2.898 1.000 1.00000 2.550 1.000      1.439  23.000
  723 2.580 2.229  2.931 1.000 1.00000 2.580 1.000      1.598  23.000
  724 2.540 2.193  2.887 1.000 1.00000 2.540 1.000      3.524  23.000
  725 2.530 2.184  2.876 1.000 1.00000 2.540 1.000      2.902  23.000
  726 2.530 2.184  2.876 1.000 1.00000 2.530 1.000      0.341  23.000
  727 2.630 2.274  2.986 1.000 1.00000 2.630 1.000      5.794  23.000
  728 2.620 2.265  2.975 1.000 1.00000 2.620 1.000      1.304  23.000
  729 2.590 2.238  2.942 1.000 1.00000 2.590 1.000      9.137  23.000
  730 2.510 2.166  2.854 1.000 1.00000 2.510 1.000      0.392  23.000
  731 2.570 2.220  2.920 1.000 1.00000 2.570 1.000      8.148  23.000
  732 2.550 2.202  2.898 1.000 1.00000 2.550 1.000      2.127  23.000
  733 2.460 2.121  2.799 1.000 1.00000 2.450 1.000      6.943  23.000
  734 2.490 2.148  2.832 1.000 1.00000 2.500 1.000      0.333  23.000
  735 2.630 2.274  2.986 1.000 1.00000 2.630 1.000      5.869  23.000
  736 2.470 2.130  2.810 1.000 1.00000 2.460 1.000      2.650  23.000
  737 2.470 2.130  2.810 1.000 1.00000 2.470 1.000      2.402  23.000
  738 2.610 2.256  2.964 1.000 1.00000 2.610 1.000      7.485  23.000
  739 2.610 2.256  2.964 1.000 1.00000 2.610 1.000      5.111  23.000
  740 2.550 2.202  2.898 1.000 1.00000 2.550 1.000      4.137  23.000
  741 2.560 2.211  2.909 1.000 1.00000 2.560 1.000      8.463  23.000
  742 2.560 2.211  2.909 1.000 1.00000 2.550 1.000      3.706  23.000
  743 2.630 2.274  2.986 1.000 1.00000 2.630 1.000      6.411  23.000
  744 2.550 2.202  2.898 1.000 1.00000 2.550 1.000      0.675  23.000
  745 2.470 2.130  2.810 1.000 1.00000 2.480 1.000      1.728  23.000
  746 2.530 2.184  2.876 1.000 1.00000 2.530 1.000      0.597  23.000
  747 2.540 2.193  2.887 1.000 1.00000 2.540 1.000      0.831  23.000
  748 2.480 2.139  2.821 1.000 1.00000 2.480 1.000      5.255  23.000
  749 2.540 2.193  2.887 1.000 1.00000 2.540 1.000      0.972  23.000
  750 2.640 2.283  2.997 1.000 1.00000 2.640 1.000      6.602  23.000
  751 2.530 2.184  2.876 1.000 1.00000 2.540 1.000      0.984  23.000
  752 2.580 2.229  2.931 1.000 1.00000 2.580 1.000      6.036  23.000
  753 2.530 2.184  2.876 1.000 1.00000 2.540 1.000      0.940  23.000
  754 2.560 2.211  2.909 1.000 1.00000 2.570 1.000      4.500  23.000
  755 2.650 2.292  3.008 1.000 1.00000 2.650 1.000     20.995  23.000
  756 2.630 2.274  2.986 1.000 1.00000 2.630 1.000      8.274  23.000
  757 2.610 2.256  2.964 1.000 1.00000 2.610 1.000      2.828  23.000
  758 2.500 2.157  2.843 1.000 1.00000 2.500 1.000      0.340  23.000
  759 2.570 2.220  2.920 1.000 1.00000 2.570 1.000      9.653  23.000
  760 2.570 2.220  2.920 1.000 1.00000 2.570 1.000      3.727  23.000
  761 2.580 2.229  2.931 1.000 1.00000 2.580 1.000      2.920  23.000
  762 2.540 2.193  2.887 1.000 1.00000 2.540 1.000      2.635  23.000
  763 2.540 2.193  2.887 1.000 1.00000 2.540 1.000      2.172  23.000
  764 2.540 2.193  2.887 1.000 1.00000 2.540 1.000      5.464  23.000
  765 2.520 2.175  2.865 1.000 1.00000 2.520 1.000      0.317  23.000
  766 2.600 2.247  2.953 1.000 1.00000 2.600 1.000      4.031  23.000
  767 2.540 2.193  2.887 1.000 1.00000 2.540 1.000      1.332  23.000
  768 2.610 2.256  2.964 1.000 1.00000 2.610 1.000      7.337  23.000
  769 2.560 2.211  2.909 1.000 1.00000 2.550 1.000      0.718  23.000
  770 2.560 2.211  2.909 1.000 1.00000 2.560 1.000      2.947  23.000
  771 2.460 2.121  2.799 1.000 1.00000 2.450 1.000      3.447  23.000
  772 2.550 2.202  2.898 1.000 1.00000 2.550 1.000      1.483  23.000
  773 2.550 2.202  2.898 1.000 1.00000 2.550 1.000      1.780  23.000
  774 2.660 2.301  3.019 1.000 1.00000 2.660 1.000     19.831  23.000
  775 2.610 2.256  2.964 1.000 1.00000 2.610 1.000      4.624  23.000
  776 2.610 2.256  2.964 1.000 1.00000 2.610 1.000      4.223  23.000
  777 2.540 2.193  2.887 1.000 1.00000 2.540 1.000      0.979  23.000
  778 2.630 2.274  2.986 1.000 1.00000 2.630 1.000     11.554  23.000
  779 2.510 2.166  2.854 1.000 1.00000 2.510 1.000      0.867  23.000
  780 2.540 2.193  2.887 1.000 1.00000 2.540 1.000      2.157  23.000
  781 2.540 2.193  2.887 1.000 1.00000 2.540 1.000      0.819  23.000
  782 2.440 2.103  2.777 1.000 1.00000 2.440 1.000      4.601  23.000
  783 2.550 2.202  2.898 1.000 1.00000 2.550 1.000      5.973  23.000
  784 2.610 2.256  2.964 1.000 1.00000 2.610 1.000      3.886  23.000
  785 2.630 2.274  2.986 1.000 1.00000 2.630 1.000     13.836  23.000
  786 2.580 2.229  2.931 1.000 1.00000 2.580 1.000     10.040  23.000
  787 2.600 2.247  2.953 1.000 1.00000 2.600 1.000      9.097  23.000
  788 2.470 2.130  2.810 1.000 1.00000 2.470 1.000      1.244  23.000
  789 2.540 2.193  2.887 1.000 1.00000 2.540 1.000      3.231  23.000
  790 2.530 2.184  2.876 1.000 1.00000 2.530 1.000      0.845  23.000
  791 2.520 2.175  2.865 1.000 1.00000 2.520 1.000      0.840  23.000
  792 2.570 2.220  2.920 1.000 1.00000 2.570 1.000      6.913  23.000
  793 2.490 2.148  2.832 1.000 1.00000 2.490 1.000      0.245  23.000
  794 2.550 2.202  2.898 1.000 1.00000 2.550 1.000      2.618  23.000
  795 2.650 2.292  3.008 1.000 1.00000 2.650 1.000      5.607  23.000
  796 2.540 2.193  2.887 1.000 1.00000 2.540 1.000      2.146  23.000
  797 2.530 2.184  2.876 1.000 1.00000 2.540 1.000      0.547  23.000
  798 2.600 2.247  2.953 1.000 1.00000 2.600 1.000      7.002  23.000
  799 2.540 2.193  2.887 1.000 1.00000 2.540 1.000      3.020  23.000
  800 2.520 2.175  2.865 1.000 1.00000 2.520 1.000      0.327  23.000
  801 2.580 2.229  2.931 1.000 1.00000 2.580 1.000      1.096  23.000
  802 2.620 2.265  2.975 1.000 1.00000 2.620 1.000      9.037  23.000
  803 2.600 2.247  2.953 1.000 1.00000 2.600 1.000     10.748  23.000
  804 2.530 2.184  2.876 1.000 1.00000 2.530 1.000      0.307  23.000
  805 2.530 2.184  2.876 1.000 1.00000 2.540 1.000      0.540  23.000
  806 2.460 2.121  2.799 1.000 1.00000 2.460 1.000      3.774  23.000
  807 2.550 2.202  2.898 1.000 1.00000 2.550 1.000      3.361  23.000
  808 2.460 2.121  2.799 1.000 1.00000 2.460 1.000      1.786  23.000
  809 2.530 2.184  2.876 1.000 1.00000 2.540 1.000      0.566  23.000
  810 2.530 2.184  2.876 1.000 1.00000 2.530 1.000      0.765  23.000
  811 2.570 2.220  2.920 1.000 1.00000 2.570 1.000      3.139  23.000
  812 2.460 2.121  2.799 1.000 1.00000 2.460 1.000      1.200  23.000
  813 2.550 2.202  2.898 1.000 1.00000 2.550 1.000      1.190  23.000
  814 2.510 2.166  2.854 1.000 1.00000 2.520 1.000      2.865  23.000
  815 2.540 2.193  2.887 1.000 1.00000 2.540 1.000      0.583  23.000
  816 2.520 2.175  2.865 1.000 1.00000 2.520 1.000      2.061  23.000
  817 2.560 2.211  2.909 1.000 1.00000 2.560 1.000      3.004  23.000
  818 2.550 2.202  2.898 1.000 1.00000 2.550 1.000      1.574  23.000
  819 2.490 2.148  2.832 1.000 1.00000 2.490 1.000      0.789  23.000
  820 2.500 2.157  2.843 1.000 1.00000 2.500 1.000      0.968  23.000
  821 2.590 2.238  2.942 1.000 1.00000 2.590 1.000      4.709  23.000
  822 2.510 2.166  2.854 1.000 1.00000 2.510 1.000      1.597  23.000
  823 2.570 2.220  2.920 1.000 1.00000 2.570 1.000      3.109  23.000
  824 2.450 2.112  2.788 1.000 1.00000 2.450 1.000      6.443  23.000
  825 2.600 2.247  2.953 1.000 1.00000 2.600 1.000      3.450  23.000
  826 2.540 2.193  2.887 1.000 1.00000 2.540 1.000      1.625  23.000
  827 2.540 2.193  2.887 1.000 1.00000 2.540 1.000      1.868  23.000
  828 2.540 2.193  2.887 1.000 1.00000 2.540 1.000      1.065  23.000
  829 2.600 2.247  2.953 1.000 1.00000 2.600 1.000      9.097  23.000
  830 2.540 2.193  2.887 1.000 1.00000 2.540 1.000      1.652  23.000
  831 2.540 2.193  2.887 1.000 1.00000 2.540 1.000      1.607  23.000
  832 2.540 2.193  2.887 1.000 1.00000 2.540 1.000      4.135  23.000
  833 2.540 2.193  2.887 1.000 1.00000 2.540 1.000      3.448  23.000
  834 2.540 2.193  2.887 1.000 1.00000 2.540 1.000      2.241  23.000
  835 2.530 2.184  2.876 1.000 1.00000 2.540 1.000      0.693  23.000
  836 2.500 2.157  2.843 1.000 1.00000 2.500 1.000      1.410  23.000
  837 2.510 2.166  2.854 1.000 1.00000 2.510 1.000      0.128  23.000
  838 2.430 2.094  2.766 1.000 1.00000 2.420 1.000      4.614  23.000
  839 2.540 2.193  2.887 1.000 1.00000 2.540 1.000      0.978  23.000
  840 2.480 2.139  2.821 1.000 1.00000 2.480 1.000      2.744  23.000
  841 2.610 2.256  2.964 1.000 1.00000 2.610 1.000      6.869  23.000
  842 2.570 2.220  2.920 1.000 1.00000 2.570 1.000      6.577  23.000
  843 2.560 2.211  2.909 1.000 1.00000 2.560 1.000      3.943  23.000
  844 2.540 2.193  2.887 1.000 1.00000 2.540 1.000      1.704  23.000
  845 2.570 2.220  2.920 1.000 1.00000 2.580 1.000      7.274  23.000
  846 2.540 2.193  2.887 1.000 1.00000 2.540 1.000      3.570  23.000
  847 2.440 2.103  2.777 1.000 1.00000 2.440 1.000      7.258  23.000
  848 2.540 2.193  2.887 1.000 1.00000 2.540 1.000      1.458  23.000
  849 2.540 2.193  2.887 1.000 1.00000 2.540 1.000      3.728  23.000
  850 2.660 2.301  3.019 1.000 1.00000 2.660 1.000     27.120  23.000
  851 2.550 2.202  2.898 1.000 1.00000 2.550 1.000      5.775  23.000
  852 2.550 2.202  2.898 1.000 1.00000 2.550 1.000      3.453  23.000
  853 2.440 2.103  2.777 1.000 1.00000 2.440 1.000      3.418  23.000
  854 2.560 2.211  2.909 1.000 1.00000 2.560 1.000      1.991  23.000
  855 2.550 2.202  2.898 1.000 1.00000 2.550 1.000      4.936  23.000
  856 2.580 2.229  2.931 1.000 1.00000 2.580 1.000      5.396  23.000
  857 2.590 2.238  2.942 1.000 1.00000 2.590 1.000     10.015  23.000
  858 2.530 2.184  2.876 1.000 1.00000 2.530 1.000      0.453  23.000
  859 2.520 2.175  2.865 1.000 1.00000 2.520 1.000      0.172  23.000
  860 2.600 2.247  2.953 1.000 1.00000 2.600 1.000      9.455  23.000
  861 2.540 2.193  2.887 1.000 1.00000 2.540 1.000      0.867  23.000
  862 2.540 2.193  2.887 1.000 1.00000 2.540 1.000      2.877  23.000
  863 2.540 2.193  2.887 1.000 1.00000 2.540 1.000      4.540  23.000
  864 2.540 2.193  2.887 1.000 1.00000 2.540 1.000      3.512  23.000
  865 2.500 2.157  2.843 1.000 1.00000 2.500 1.000      1.030  23.000
  866 2.550 2.202  2.898 1.000 1.00000 2.550 1.000      0.914  23.000
  867 2.470 2.130  2.810 1.000 1.00000 2.460 1.000      2.477  23.000
  868 2.620 2.265  2.975 1.000 1.00000 2.620 1.000      6.914  23.000
  869 2.610 2.256  2.964 1.000 1.00000 2.610 1.000      2.440  23.000
  870 2.480 2.139  2.821 1.000 1.00000 2.480 1.000      0.610  23.000
  871 2.550 2.202  2.898 1.000 1.00000 2.550 1.000      2.621  23.000
  872 2.540 2.193  2.887 1.000 1.00000 2.540 1.000      2.382  23.000
  873 2.650 2.292  3.008 1.000 1.00000 2.650 1.000     21.185  23.000
  874 2.520 2.175  2.865 1.000 1.00000 2.520 1.000      1.652  23.000
  875 2.650 2.292  3.008 1.000 1.00000 2.650 1.000     12.046  23.000
  876 2.530 2.184  2.876 1.000 1.00000 2.530 1.000      0.328  23.000
  877 2.500 2.157  2.843 1.000 1.00000 2.500 1.000      0.851  23.000
  878 2.530 2.184  2.876 1.000 1.00000 2.540 1.000      0.533  23.000
  879 2.580 2.229  2.931 1.000 1.00000 2.580 1.000      6.973  23.000
  880 2.470 2.130  2.810 1.000 1.00000 2.460 1.000      2.171  23.000
  881 2.550 2.202  2.898 1.000 1.00000 2.550 1.000      3.681  23.000
  882 2.550 2.202  2.898 1.000 1.00000 2.550 1.000      5.464  23.000
  883 2.540 2.193  2.887 1.000 1.00000 2.540 1.000      4.298  23.000
  884 2.650 2.292  3.008 1.000 1.00000 2.650 1.000      7.578  23.000
  885 2.560 2.211  2.909 1.000 1.00000 2.560 1.000      1.692  23.000
  886 2.450 2.112  2.788 1.000 1.00000 2.450 1.000      8.521  23.000
  887 2.460 2.121  2.799 1.000 1.00000 2.450 1.000      3.421  23.000
  888 2.650 2.292  3.008 1.000 1.00000 2.650 1.000     11.722  23.000
  889 2.530 2.184  2.876 1.000 1.00000 2.530 1.000      0.715  23.000
  890 2.540 2.193  2.887 1.000 1.00000 2.540 1.000      1.170  23.000
  891 2.580 2.229  2.931 1.000 1.00000 2.580 1.000      3.498  23.000
  892 2.500 2.157  2.843 1.000 1.00000 2.500 1.000      0.230  23.000
  893 2.510 2.166  2.854 1.000 1.00000 2.510 1.000      1.070  23.000
  894 2.590 2.238  2.942 1.000 1.00000 2.590 1.000     12.216  23.000
  895 2.500 2.157  2.843 1.000 1.00000 2.490 1.000      1.089  23.000
  896 2.630 2.274  2.986 1.000 1.00000 2.630 1.000     14.829  23.000
  897 2.550 2.202  2.898 1.000 1.00000 2.550 1.000      2.768  23.000
  898 2.500 2.157  2.843 1.000 1.00000 2.500 1.000      0.529  23.000
  899 2.470 2.130  2.810 1.000 1.00000 2.470 1.000      0.996  23.000
  900 2.470 2.130  2.810 1.000 1.00000 2.470 1.000      1.043  23.000
  901 2.590 2.238  2.942 1.000 1.00000 2.590 1.000      4.383  23.000
  902 2.530 2.184  2.876 1.000 1.00000 2.530 1.000      0.871  23.000
  903 2.540 2.193  2.887 1.000 1.00000 2.540 1.000      2.400  23.000
  904 2.510 2.166  2.854 1.000 1.00000 2.510 1.000      0.142  23.000
  905 2.500 2.157  2.843 1.000 1.00000 2.500 1.000      0.432  23.000
  906 2.550 2.202  2.898 1.000 1.00000 2.550 1.000      2.190  23.000
  907 2.550 2.202  2.898 1.000 1.00000 2.550 1.000      1.735  23.000
  908 2.580 2.229  2.931 1.000 1.00000 2.580 1.000      4.952  23.000
  909 2.530 2.184  2.876 1.000 1.00000 2.530 1.000      0.382  23.000
  910 2.440 2.103  2.777 1.000 1.00000 2.440 1.000      2.329  23.000
  911 2.530 2.184  2.876 1.000 1.00000 2.530 1.000      0.579  23.000
  912 2.500 2.157  2.843 1.000 1.00000 2.500 1.000      0.098  23.000
  913 2.580 2.229  2.931 1.000 1.00000 2.580 1.000      4.131  23.000
  914 2.530 2.184  2.876 1.000 1.00000 2.530 1.000      0.816  23.000
  915 2.550 2.202  2.898 1.000 1.00000 2.550 1.000      1.674  23.000
  916 2.650 2.292  3.008 1.000 1.00000 2.650 1.000      8.122  23.000
  917 2.550 2.202  2.898 1.000 1.00000 2.550 1.000      3.210  23.000
  918 2.530 2.184  2.876 1.000 1.00000 2.530 1.000      0.601  23.000
  919 2.560 2.211  2.909 1.000 1.00000 2.560 1.000      4.597  23.000
  920 2.660 2.301  3.019 1.000 1.00000 2.660 1.000     14.659  23.000
  921 2.540 2.193  2.887 1.000 1.00000 2.540 1.000      0.748  23.000
  922 2.620 2.265  2.975 1.000 1.00000 2.620 1.000      3.232  23.000
  923 2.540 2.193  2.887 1.000 1.00000 2.540 1.000      1.470  23.000
  924 2.520 2.175  2.865 1.000 1.00000 2.520 1.000      0.287  23.000
  925 2.460 2.121  2.799 1.000 1.00000 2.460 1.000      2.256  23.000
  926 2.580 2.229  2.931 1.000 1.00000 2.580 1.000      0.937  23.000
  927 2.550 2.202  2.898 1.000 1.00000 2.550 1.000      6.651  23.000
  928 2.620 2.265  2.975 1.000 1.00000 2.620 1.000      9.485  23.000
  929 2.480 2.139  2.821 1.000 1.00000 2.480 1.000      1.054  23.000
  930 2.600 2.247  2.953 1.000 1.00000 2.600 1.000     11.767  23.000
  931 2.510 2.166  2.854 1.000 1.00000 2.510 1.000      0.147  23.000
  932 2.470 2.130  2.810 1.000 1.00000 2.470 1.000      0.892  23.000
  933 2.590 2.238  2.942 1.000 1.00000 2.590 1.000      1.221  23.000
  934 2.520 2.175  2.865 1.000 1.00000 2.530 1.000      1.942  23.000
  935 2.650 2.292  3.008 1.000 1.00000 2.650 1.000     11.673  23.000
  936 2.510 2.166  2.854 1.000 1.00000 2.510 1.000      0.273  23.000
  937 2.530 2.184  2.876 1.000 1.00000 2.540 1.000      3.216  23.000
  938 2.490 2.148  2.832 1.000 1.00000 2.490 1.000      1.360  23.000
  939 2.470 2.130  2.810 1.000 1.00000 2.470 1.000      1.102  23.000
  940 2.520 2.175  2.865 1.000 1.00000 2.520 1.000      0.323  23.000
  941 2.550 2.202  2.898 1.000 1.00000 2.550 1.000      3.549  23.000
  942 2.580 2.229  2.931 1.000 1.00000 2.580 1.000      8.375  23.000
  943 2.600 2.247  2.953 1.000 1.00000 2.600 1.000      1.287  23.000
  944 2.550 2.202  2.898 1.000 1.00000 2.550 1.000      1.310  23.000
  945 2.540 2.193  2.887 1.000 1.00000 2.540 1.000      3.379  23.000
  946 2.540 2.193  2.887 1.000 1.00000 2.540 1.000      1.152  23.000
  947 2.580 2.229  2.931 1.000 1.00000 2.580 1.000      3.067  23.000
  948 2.500 2.157  2.843 1.000 1.00000 2.500 1.000      0.155  23.000
  949 2.520 2.175  2.865 1.000 1.00000 2.520 1.000      0.194  23.000
  950 2.550 2.202  2.898 1.000 1.00000 2.550 1.000      2.931  23.000
  951 2.500 2.157  2.843 1.000 1.00000 2.500 1.000      2.675  23.000
  952 2.540 2.193  2.887 1.000 1.00000 2.540 1.000      2.542  23.000
  953 2.510 2.166  2.854 1.000 1.00000 2.510 1.000      0.250  23.000
  954 2.550 2.202  2.898 1.000 1.00000 2.550 1.000      1.963  23.000
  955 2.470 2.130  2.810 1.000 1.00000 2.460 1.000      0.985  23.000
  956 2.480 2.139  2.821 1.000 1.00000 2.480 1.000      0.561  23.000
  957 2.540 2.193  2.887 1.000 1.00000 2.540 1.000      2.456  23.000
  958 2.550 2.202  2.898 1.000 1.00000 2.550 1.000      2.602  23.000
  959 2.480 2.139  2.821 1.000 1.00000 2.490 1.000      0.608  23.000
  960 2.560 2.211  2.909 1.000 1.00000 2.570 1.000      5.220  23.000
  961 2.570 2.220  2.920 1.000 1.00000 2.570 1.000      3.485  23.000
  962 2.460 2.121  2.799 1.000 1.00000 2.460 1.000      1.445  23.000
  963 2.570 2.220  2.920 1.000 1.00000 2.570 1.000      3.418  23.000
  964 2.600 2.247  2.953 1.000 1.00000 2.600 1.000      7.685  23.000
  965 2.560 2.211  2.909 1.000 1.00000 2.560 1.000      4.926  23.000
  966 2.550 2.202  2.898 1.000 1.00000 2.550 1.000      6.920  23.000
  967 2.540 2.193  2.887 1.000 1.00000 2.540 1.000      3.463  23.000
  968 2.460 2.121  2.799 1.000 1.00000 2.460 1.000      2.318  23.000
  969 2.450 2.112  2.788 1.000 1.00000 2.450 1.000      2.430  23.000
  970 2.620 2.265  2.975 1.000 1.00000 2.620 1.000      2.457  23.000
  971 2.580 2.229  2.931 1.000 1.00000 2.580 1.000      5.750  23.000
  972 2.550 2.202  2.898 1.000 1.00000 2.550 1.000      1.092  23.000
  973 2.650 2.292  3.008 1.000 1.00000 2.650 1.000     16.989  23.000
  974 2.560 2.211  2.909 1.000 1.00000 2.560 1.000      4.736  23.000
  975 2.640 2.283  2.997 1.000 1.00000 2.640 1.000      9.572  23.000
  976 2.540 2.193  2.887 1.000 1.00000 2.540 1.000      2.443  23.000
  977 2.580 2.229  2.931 1.000 1.00000 2.580 1.000      2.302  23.000
  978 2.540 2.193  2.887 1.000 1.00000 2.540 1.000      0.875  23.000
  979 2.550 2.202  2.898 1.000 1.00000 2.550 1.000      3.059  23.000
  980 2.560 2.211  2.909 1.000 1.00000 2.560 1.000      5.275  23.000
  981 2.460 2.121  2.799 1.000 1.00000 2.460 1.000      2.100  23.000
  982 2.550 2.202  2.898 1.000 1.00000 2.550 1.000      0.819  23.000
  983 2.480 2.139  2.821 1.000 1.00000 2.480 1.000      0.719  23.000
  984 2.550 2.202  2.898 1.000 1.00000 2.550 1.000      1.716  23.000
  985 2.600 2.247  2.953 1.000 1.00000 2.600 1.000      9.919  23.000
  986 2.590 2.238  2.942 1.000 1.00000 2.590 1.000      2.249  23.000
  987 2.540 2.193  2.887 1.000 1.00000 2.540 1.000      1.534  23.000
  988 2.490 2.148  2.832 1.000 1.00000 2.490 1.000      2.874  23.000
  989 2.540 2.193  2.887 1.000 1.00000 2.540 1.000      1.403  23.000
  990 2.560 2.211  2.909 1.000 1.00000 2.560 1.000      3.980  23.000
  991 2.620 2.265  2.975 1.000 1.00000 2.620 1.000     11.994  23.000
  992 2.540 2.193  2.887 1.000 1.00000 2.540 1.000      2.947  23.000
  993 2.500 2.157  2.843 1.000 1.00000 2.500 1.000      0.277  23.000
  994 2.480 2.139  2.821 1.000 1.00000 2.480 1.000      0.430  23.000
  995 2.530 2.184  2.876 1.000 1.00000 2.540 1.000      3.063  23.000
  996 2.410 2.076  2.744 1.000 1.00000 2.410 1.000      7.866  23.000
  997 2.560 2.211  2.909 1.000 1.00000 2.570 1.000      2.544  23.000
  998 2.540 2.193  2.887 1.000 1.00000 2.540 1.000      1.840  23.000
  999 2.460 2.121  2.799 1.000 1.00000 2.450 1.000      2.434  23.000
 1000 2.550 2.202  2.898 1.000 1.00000 2.550 1.000      1.709  23.000
 1001 2.490 2.148  2.832 1.000 1.00000 2.490 1.000      1.134  23.000
 1002 2.540 2.193  2.887 1.000 1.00000 2.540 1.000      2.413  23.000
 1003 2.540 2.193  2.887 1.000 1.00000 2.540 1.000      3.946  23.000
 1004 2.630 2.274  2.986 1.000 1.00000 2.630 1.000      5.940  23.000
 1005 2.590 2.238  2.942 1.000 1.00000 2.590 1.000      1.040  23.000
 1006 2.530 2.184  2.876 1.000 1.00000 2.540 1.000      0.988  23.000
 1007 2.600 2.247  2.953 1.000 1.00000 2.600 1.000      9.812  23.000
 1008 2.590 2.238  2.942 1.000 1.00000 2.590 1.000      6.780  23.000
 1009 2.540 2.193  2.887 1.000 1.00000 2.540 1.000      2.010  23.000
 1010 2.510 2.166  2.854 1.000 1.00000 2.510 1.000      0.396  23.000
 1011 2.560 2.211  2.909 1.000 1.00000 2.560 1.000      4.132  23.000
 1012 2.540 2.193  2.887 1.000 1.00000 2.540 1.000      1.191  23.000
 1013 2.470 2.130  2.810 1.000 1.00000 2.460 1.000      0.993  23.000
 1014 2.550 2.202  2.898 1.000 1.00000 2.550 1.000      3.435  23.000
 1015 2.540 2.193  2.887 1.000 1.00000 2.540 1.000      0.662  23.000
 1016 2.460 2.121  2.799 1.000 1.00000 2.450 1.000      5.166  23.000
 1017 2.510 2.166  2.854 1.000 1.00000 2.510 1.000      0.215  23.000
 1018 2.490 2.148  2.832 1.000 1.00000 2.490 1.000      0.408  23.000
 1019 2.630 2.274  2.986 1.000 1.00000 2.630 1.000      6.017  23.000
 1020 2.440 2.103  2.777 1.000 1.00000 2.440 1.000      4.480  23.000
 1021 2.500 2.157  2.843 1.000 1.00000 2.500 1.000      0.269  23.000
 1022 2.480 2.139  2.821 1.000 1.00000 2.480 1.000      1.495  23.000
 1023 2.550 2.202  2.898 1.000 1.00000 2.550 1.000      3.849  23.000
 1024 2.540 2.193  2.887 1.000 1.00000 2.540 1.000      3.990  23.000
 1025 2.530 2.184  2.876 1.000 1.00000 2.530 1.000      0.508  23.000
 1026 2.570 2.220  2.920 1.000 1.00000 2.570 1.000      4.111  23.000
 1027 2.530 2.184  2.876 1.000 1.00000 2.540 1.000      0.597  23.000
 1028 2.550 2.202  2.898 1.000 1.00000 2.550 1.000      6.489  23.000
 1029 2.570 2.220  2.920 1.000 1.00000 2.570 1.000      6.883  23.000
 1030 2.580 2.229  2.931 1.000 1.00000 2.580 1.000      4.038  23.000
 1031 2.510 2.166  2.854 1.000 1.00000 2.510 1.000      0.254  23.000
 1032 2.510 2.166  2.854 1.000 1.00000 2.510 1.000      0.256  23.000
 1033 2.550 2.202  2.898 1.000 1.00000 2.550 1.000      1.319  23.000
 1034 2.550 2.202  2.898 1.000 1.00000 2.550 1.000      0.620  23.000
 1035 2.540 2.193  2.887 1.000 1.00000 2.540 1.000      1.966  23.000
 1036 2.460 2.121  2.799 1.000 1.00000 2.460 1.000      1.759  23.000
 1037 2.600 2.247  2.953 1.000 1.00000 2.600 1.000      5.061  23.000
 1038 2.540 2.193  2.887 1.000 1.00000 2.540 1.000      4.792  23.000
 1039 2.550 2.202  2.898 1.000 1.00000 2.550 1.000      4.928  23.000
 1040 2.500 2.157  2.843 1.000 1.00000 2.500 1.000      0.949  23.000
 1041 2.570 2.220  2.920 1.000 1.00000 2.570 1.000      1.453  23.000
 1042 2.550 2.202  2.898 1.000 1.00000 2.550 1.000      3.490  23.000
 1043 2.500 2.157  2.843 1.000 1.00000 2.500 1.000      3.940  23.000
 1044 2.550 2.202  2.898 1.000 1.00000 2.550 1.000      4.686  23.000
 1045 2.630 2.274  2.986 1.000 1.00000 2.630 1.000      5.353  23.000
 1046 2.540 2.193  2.887 1.000 1.00000 2.540 1.000      4.076  23.000
 1047 2.600 2.247  2.953 1.000 1.00000 2.600 1.000     11.305  23.000
 1048 2.480 2.139  2.821 1.000 1.00000 2.480 1.000      0.738  23.000
 1049 2.550 2.202  2.898 1.000 1.00000 2.550 1.000      4.431  23.000
 1050 2.550 2.202  2.898 1.000 1.00000 2.550 1.000      3.771  23.000
 1051 2.540 2.193  2.887 1.000 1.00000 2.540 1.000      1.402  23.000
 1052 2.570 2.220  2.920 1.000 1.00000 2.570 1.000      6.993  23.000
 1053 2.470 2.130  2.810 1.000 1.00000 2.470 1.000      0.742  23.000
 1054 2.540 2.193  2.887 1.000 1.00000 2.540 1.000      1.722  23.000
 1055 2.550 2.202  2.898 1.000 1.00000 2.550 1.000      5.659  23.000
 1056 2.540 2.193  2.887 1.000 1.00000 2.540 1.000      1.662  23.000
 1057 2.540 2.193  2.887 1.000 1.00000 2.540 1.000      1.414  23.000
 1058 2.540 2.193  2.887 1.000 1.00000 2.540 1.000      1.529  23.000
 1059 2.610 2.256  2.964 1.000 1.00000 2.610 1.000      5.114  23.000
 1060 2.470 2.130  2.810 1.000 1.00000 2.470 1.000      3.464  23.000
 1061 2.630 2.274  2.986 1.000 1.00000 2.630 1.000      6.909  23.000
 1062 2.530 2.184  2.876 1.000 1.00000 2.530 1.000      0.372  23.000
 1063 2.550 2.202  2.898 1.000 1.00000 2.550 1.000      1.056  23.000
 1064 2.580 2.229  2.931 1.000 1.00000 2.580 1.000      7.391  23.000
 1065 2.540 2.193  2.887 1.000 1.00000 2.540 1.000      1.139  23.000
 1066 2.450 2.112  2.788 1.000 1.00000 2.450 1.000      6.431  23.000
 1067 2.490 2.148  2.832 1.000 1.00000 2.490 1.000      0.122  23.000
 1068 2.550 2.202  2.898 1.000 1.00000 2.550 1.000      1.175  23.000
 1069 2.470 2.130  2.810 1.000 1.00000 2.460 1.000      1.093  23.000
 1070 2.570 2.220  2.920 1.000 1.00000 2.570 1.000      6.138  23.000
 1071 2.630 2.274  2.986 1.000 1.00000 2.630 1.000     18.377  23.000
 1072 2.530 2.184  2.876 1.000 1.00000 2.540 1.000      0.469  23.000
 1073 2.630 2.274  2.986 1.000 1.00000 2.630 1.000      5.155  23.000
 1074 2.490 2.148  2.832 1.000 1.00000 2.490 1.000      0.660  23.000
 1075 2.510 2.166  2.854 1.000 1.00000 2.510 1.000      0.818  23.000
 1076 2.550 2.202  2.898 1.000 1.00000 2.550 1.000      5.524  23.000
 1077 2.560 2.211  2.909 1.000 1.00000 2.560 1.000      3.787  23.000
 1078 2.500 2.157  2.843 1.000 1.00000 2.500 1.000      1.646  23.000
 1079 2.570 2.220  2.920 1.000 1.00000 2.570 1.000      1.006  23.000
 1080 2.650 2.292  3.008 1.000 1.00000 2.650 1.000     13.282  23.000
 1081 2.540 2.193  2.887 1.000 1.00000 2.540 1.000      0.976  23.000
 1082 2.530 2.184  2.876 1.000 1.00000 2.530 1.000      0.398  23.000
 1083 2.510 2.166  2.854 1.000 1.00000 2.510 1.000      0.146  23.000
 1084 2.590 2.238  2.942 1.000 1.00000 2.590 1.000     13.528  23.000
 1085 2.530 2.184  2.876 1.000 1.00000 2.530 1.000      0.481  23.000
 1086 2.530 2.184  2.876 1.000 1.00000 2.530 1.000      1.952  23.000
 1087 2.450 2.112  2.788 1.000 1.00000 2.450 1.000      7.311  23.000
 1088 2.490 2.148  2.832 1.000 1.00000 2.490 1.000      0.875  23.000
 1089 2.510 2.166  2.854 1.000 1.00000 2.510 1.000      0.592  23.000
 1090 2.550 2.202  2.898 1.000 1.00000 2.550 1.000      1.559  23.000
 1091 2.540 2.193  2.887 1.000 1.00000 2.540 1.000      3.708  23.000
 1092 2.480 2.139  2.821 1.000 1.00000 2.490 1.000      0.363  23.000
 1093 2.480 2.139  2.821 1.000 1.00000 2.480 1.000      0.667  23.000
 1094 2.490 2.148  2.832 1.000 1.00000 2.490 1.000      0.951  23.000
 1095 2.540 2.193  2.887 1.000 1.00000 2.540 1.000      1.800  23.000
 1096 2.580 2.229  2.931 1.000 1.00000 2.580 1.000      3.909  23.000
 1097 2.470 2.130  2.810 1.000 1.00000 2.480 1.000      2.075  23.000
 1098 2.490 2.148  2.832 1.000 1.00000 2.490 1.000     10.861  23.000
 1099 2.560 2.211  2.909 1.000 1.00000 2.560 1.000      1.046  23.000
 1100 2.510 2.166  2.854 1.000 1.00000 2.510 1.000      0.224  23.000
 1101 2.540 2.193  2.887 1.000 1.00000 2.540 1.000      3.082  23.000
 1102 2.460 2.121  2.799 1.000 1.00000 2.460 1.000      1.876  23.000
 1103 2.610 2.256  2.964 1.000 1.00000 2.610 1.000     11.914  23.000
 1104 2.630 2.274  2.986 1.000 1.00000 2.630 1.000     12.881  23.000
 1105 2.520 2.175  2.865 1.000 1.00000 2.520 1.000      0.205  23.000
 1106 2.580 2.229  2.931 1.000 1.00000 2.580 1.000      9.855  23.000
 1107 2.620 2.265  2.975 1.000 1.00000 2.620 1.000      5.291  23.000
 1108 2.540 2.193  2.887 1.000 1.00000 2.540 1.000      3.644  23.000
 1109 2.500 2.157  2.843 1.000 1.00000 2.500 1.000      0.051  23.000
 1110 2.550 2.202  2.898 1.000 1.00000 2.550 1.000      4.743  23.000
 1111 2.610 2.256  2.964 1.000 1.00000 2.610 1.000      2.002  23.000
 1112 2.610 2.256  2.964 1.000 1.00000 2.610 1.000      3.852  23.000
 1113 2.550 2.202  2.898 1.000 1.00000 2.550 1.000      2.239  23.000
 1114 2.500 2.157  2.843 1.000 1.00000 2.500 1.000      0.163  23.000
 1115 2.640 2.283  2.997 1.000 1.00000 2.640 1.000     15.032  23.000
 1116 2.630 2.274  2.986 1.000 1.00000 2.630 1.000     13.413  23.000
 1117 2.510 2.166  2.854 1.000 1.00000 2.510 1.000      0.651  23.000
 1118 2.510 2.166  2.854 1.000 1.00000 2.510 1.000      0.867  23.000
 1119 2.600 2.247  2.953 1.000 1.00000 2.600 1.000      4.727  23.000
 1120 2.480 2.139  2.821 1.000 1.00000 2.480 1.000      1.117  23.000
 1121 2.600 2.247  2.953 1.000 1.00000 2.600 1.000      5.056  23.000
 1122 2.580 2.229  2.931 1.000 1.00000 2.580 1.000      3.731  23.000
 1123 2.540 2.193  2.887 1.000 1.00000 2.540 1.000      2.047  23.000
 1124 2.540 2.193  2.887 1.000 1.00000 2.540 1.000      2.456  23.000
 1125 2.540 2.193  2.887 1.000 1.00000 2.540 1.000      4.193  23.000
 1126 2.560 2.211  2.909 1.000 1.00000 2.560 1.000      4.261  23.000
 1127 2.550 2.202  2.898 1.000 1.00000 2.550 1.000      0.637  23.000
 1128 2.520 2.175  2.865 1.000 1.00000 2.520 1.000      0.564  23.000
 1129 2.520 2.175  2.865 1.000 1.00000 2.520 1.000      0.677  23.000
 1130 2.540 2.193  2.887 1.000 1.00000 2.540 1.000      1.744  23.000
 1131 2.530 2.184  2.876 1.000 1.00000 2.540 1.000      0.614  23.000
 1132 2.530 2.184  2.876 1.000 1.00000 2.540 1.000      0.822  23.000
 1133 2.500 2.157  2.843 1.000 1.00000 2.500 1.000      0.843  23.000
 1134 2.630 2.274  2.986 1.000 1.00000 2.630 1.000     12.268  23.000
 1135 2.560 2.211  2.909 1.000 1.00000 2.550 1.000      3.197  23.000
 1136 2.530 2.184  2.876 1.000 1.00000 2.540 1.000      2.307  23.000
 1137 2.540 2.193  2.887 1.000 1.00000 2.540 1.000      1.136  23.000
 1138 2.650 2.292  3.008 1.000 1.00000 2.650 1.000     11.700  23.000
 1139 2.540 2.193  2.887 1.000 1.00000 2.540 1.000      1.595  23.000
 1140 2.550 2.202  2.898 1.000 1.00000 2.550 1.000      2.331  23.000
 1141 2.560 2.211  2.909 1.000 1.00000 2.550 1.000      5.127  23.000
 1142 2.510 2.166  2.854 1.000 1.00000 2.510 1.000      0.176  23.000
 1143 2.550 2.202  2.898 1.000 1.00000 2.550 1.000      0.978  23.000
 1144 2.640 2.283  2.997 1.000 1.00000 2.640 1.000     16.965  23.000
 1145 2.550 2.202  2.898 1.000 1.00000 2.550 1.000      3.058  23.000
 1146 2.650 2.292  3.008 1.000 1.00000 2.650 1.000      8.222  23.000
 1147 2.630 2.274  2.986 1.000 1.00000 2.630 1.000      8.216  23.000
 1148 2.490 2.148  2.832 1.000 1.00000 2.490 1.000      0.453  23.000
 1149 2.550 2.202  2.898 1.000 1.00000 2.550 1.000      1.018  23.000
 1150 2.570 2.220  2.920 1.000 1.00000 2.570 1.000      2.784  23.000
 1151 2.620 2.265  2.975 1.000 1.00000 2.620 1.000      7.279  23.000
 1152 2.600 2.247  2.953 1.000 1.00000 2.600 1.000     10.787  23.000
 1153 2.560 2.211  2.909 1.000 1.00000 2.560 1.000      2.814  23.000
 1154 2.500 2.157  2.843 1.000 1.00000 2.500 1.000      0.628  23.000
 1155 2.490 2.148  2.832 1.000 1.00000 2.490 1.000      0.395  23.000
 1156 2.550 2.202  2.898 1.000 1.00000 2.550 1.000      2.744  23.000
 1157 2.560 2.211  2.909 1.000 1.00000 2.560 1.000      2.165  23.000
 1158 2.550 2.202  2.898 1.000 1.00000 2.550 1.000      2.741  23.000
 1159 2.490 2.148  2.832 1.000 1.00000 2.490 1.000      2.329  23.000
 1160 2.490 2.148  2.832 1.000 1.00000 2.490 1.000      0.426  23.000
 1161 2.480 2.139  2.821 1.000 1.00000 2.480 1.000      0.776  23.000
 1162 2.560 2.211  2.909 1.000 1.00000 2.560 1.000      0.866  23.000
 1163 2.560 2.211  2.909 1.000 1.00000 2.560 1.000      6.404  23.000
 1164 2.540 2.193  2.887 1.000 1.00000 2.540 1.000      2.002  23.000
 1165 2.580 2.229  2.931 1.000 1.00000 2.580 1.000      2.652  23.000
 1166 2.560 2.211  2.909 1.000 1.00000 2.570 1.000      4.208  23.000
 1167 2.610 2.256  2.964 1.000 1.00000 2.610 1.000      6.152  23.000
 1168 2.470 2.130  2.810 1.000 1.00000 2.470 1.000      2.963  23.000
 1169 2.590 2.238  2.942 1.000 1.00000 2.590 1.000      9.059  23.000
 1170 2.530 2.184  2.876 1.000 1.00000 2.530 1.000      0.796  23.000
 1171 2.560 2.211  2.909 1.000 1.00000 2.560 1.000      5.826  23.000
 1172 2.480 2.139  2.821 1.000 1.00000 2.480 1.000      1.582  23.000
 1173 2.550 2.202  2.898 1.000 1.00000 2.550 1.000      1.934  23.000
 1174 2.540 2.193  2.887 1.000 1.00000 2.540 1.000      1.633  23.000
 1175 2.580 2.229  2.931 1.000 1.00000 2.580 1.000      1.386  23.000
 1176 2.510 2.166  2.854 1.000 1.00000 2.510 1.000      0.443  23.000
 1177 2.480 2.139  2.821 1.000 1.00000 2.480 1.000      1.293  23.000
 1178 2.570 2.220  2.920 1.000 1.00000 2.570 1.000      5.093  23.000
 1179 2.530 2.184  2.876 1.000 1.00000 2.540 1.000      0.488  23.000
 1180 2.540 2.193  2.887 1.000 1.00000 2.540 1.000      2.598  23.000
 1181 2.570 2.220  2.920 1.000 1.00000 2.570 1.000      3.766  23.000
 1182 2.540 2.193  2.887 1.000 1.00000 2.540 1.000      8.752  23.000
 1183 2.580 2.229  2.931 1.000 1.00000 2.580 1.000      1.275  23.000
 1184 2.490 2.148  2.832 1.000 1.00000 2.490 1.000      2.687  23.000
 1185 2.520 2.175  2.865 1.000 1.00000 2.520 1.000      0.296  23.000
 1186 2.550 2.202  2.898 1.000 1.00000 2.550 1.000      2.433  23.000
 1187 2.660 2.301  3.019 1.000 1.00000 2.660 1.000     20.164  23.000
 1188 2.540 2.193  2.887 1.000 1.00000 2.540 1.000      3.037  23.000
 1189 2.550 2.202  2.898 1.000 1.00000 2.550 1.000      3.514  23.000
 1190 2.530 2.184  2.876 1.000 1.00000 2.540 1.000      0.552  23.000
 1191 2.520 2.175  2.865 1.000 1.00000 2.520 1.000      0.324  23.000
 1192 2.570 2.220  2.920 1.000 1.00000 2.570 1.000      5.297  23.000
 1193 2.540 2.193  2.887 1.000 1.00000 2.540 1.000      3.461  23.000
 1194 2.460 2.121  2.799 1.000 1.00000 2.460 1.000      1.566  23.000
 1195 2.620 2.265  2.975 1.000 1.00000 2.620 1.000      6.467  23.000
 1196 2.540 2.193  2.887 1.000 1.00000 2.540 1.000      0.629  23.000
 1197 2.550 2.202  2.898 1.000 1.00000 2.550 1.000      2.528  23.000
 1198 2.540 2.193  2.887 1.000 1.00000 2.540 1.000      2.976  23.000
 1199 2.530 2.184  2.876 1.000 1.00000 2.540 1.000      0.504  23.000
 1200 2.570 2.220  2.920 1.000 1.00000 2.570 1.000      3.690  23.000
