## File LOS/SB2_B2004a_1.8z_Mags_1400.bpz  Sat Aug 13 01:33:39 2016
##
##Parameters used to run BPZ:
##
##AB_DIR=/home/lidenscheng/bpz-1.99.3//AB/
##ADD_CONTINUOUS_PROB=None
##ADD_SPEC_PROB=None
##CHECK=LOS/SB2_B2004a_1.8z_Mags_1400.flux_comparison
##COLOR=no
##COLUMNS=losNoErrors.columns
##CONVOLVE_P=yes
##DELTA_M_0=0.0
##DZ=0.01
##EXCLUDE=none
##FC=None
##FILTER_DIR=/home/lidenscheng/MK_DirectSim/filters/
##GET_Z=yes
##INPUT=LOS/SB2_B2004a_1.8z_Mags_1400.txt
##INTERACTIVE=yes
##INTERP=0
##MADAU=no
##MAG=yes
##MEAN_IGM=yes
##MERGE_PEAKS=no
##MIN_MAGERR=0.001
##MIN_RMS=0.05
##NEW_AB=no
##NMAX=None
##NTYPES=None
##N_PEAKS=1
##ODDS=0.95
##ONLY_TYPE=no
##OUTPUT=LOS/SB2_B2004a_1.8z_Mags_1400.bpz
##PHOTO_ERRORS=no
##PLOTS=no
##PRIOR=none
##PROBS=no
##PROBS2=no
##PROBS_LITE=LOS/SB2_B2004a_1.8z_Mags_1400.probs
##P_MIN=0.01
##SED_DIR=/home/lidenscheng/MK_DirectSim/SEDs/
##SPECTRA=SB2.list
##VERBOSE=yes
##ZC=None
##ZMAX=10.0
##ZMIN=0.01
##ZP_OFFSETS=0.0
##Z_THR=0
##
##Column information
##
# 1 ID
# 2 Z_B
# 3 Z_B_MIN
# 4 Z_B_MAX
# 5 T_B
# 6 ODDS    
# 7 Z_ML
# 8 T_ML
# 9 CHI-SQUARED
# 10 M_0
##
    1 1.850 1.571  2.129 1.000 1.00000 1.850 1.000      2.276  23.000
    2 1.860 1.580  2.140 1.000 1.00000 1.850 1.000      2.282  23.000
    3 1.860 1.580  2.140 1.000 1.00000 1.850 1.000      2.566  23.000
    4 1.860 1.580  2.140 1.000 1.00000 1.850 1.000      2.351  23.000
    5 1.890 1.607  2.173 1.000 1.00000 1.890 1.000     36.537  23.000
    6 1.860 1.580  2.140 1.000 1.00000 1.850 1.000      2.896  23.000
    7 1.850 1.571  2.129 1.000 1.00000 1.850 1.000      2.276  23.000
    8 1.850 1.571  2.129 1.000 1.00000 1.850 1.000      2.479  23.000
    9 1.860 1.580  2.140 1.000 1.00000 1.850 1.000      3.302  23.000
   10 1.850 1.571  2.129 1.000 1.00000 1.850 1.000      2.396  23.000
   11 1.860 1.580  2.140 1.000 1.00000 1.850 1.000      4.868  23.000
   12 1.860 1.580  2.140 1.000 1.00000 1.850 1.000      2.583  23.000
   13 1.860 1.580  2.140 1.000 1.00000 1.850 1.000      2.327  23.000
   14 1.860 1.580  2.140 1.000 1.00000 1.850 1.000      4.842  23.000
   15 1.890 1.607  2.173 1.000 1.00000 1.890 1.000     27.661  23.000
   16 1.850 1.571  2.129 1.000 1.00000 1.850 1.000      2.276  23.000
   17 1.860 1.580  2.140 1.000 1.00000 1.850 1.000      2.316  23.000
   18 1.860 1.580  2.140 1.000 1.00000 1.860 1.000      5.928  23.000
   19 1.880 1.598  2.162 1.000 1.00000 1.880 1.000     10.535  23.000
   20 1.850 1.571  2.129 1.000 1.00000 1.850 1.000      2.479  23.000
   21 1.860 1.580  2.140 1.000 1.00000 1.850 1.000      2.279  23.000
   22 1.870 1.589  2.151 1.000 1.00000 1.880 1.000      9.502  23.000
   23 1.880 1.598  2.162 1.000 1.00000 1.880 1.000     14.144  23.000
   24 1.850 1.571  2.129 1.000 1.00000 1.850 1.000      2.308  23.000
   25 1.860 1.580  2.140 1.000 1.00000 1.860 1.000      5.547  23.000
   26 1.850 1.571  2.129 1.000 1.00000 1.850 1.000      2.275  23.000
   27 1.860 1.580  2.140 1.000 1.00000 1.850 1.000      3.419  23.000
   28 1.850 1.571  2.129 1.000 1.00000 1.850 1.000      2.592  23.000
   29 1.870 1.589  2.151 1.000 1.00000 1.880 1.000      8.267  23.000
   30 1.850 1.571  2.129 1.000 1.00000 1.850 1.000      2.284  23.000
   31 1.850 1.571  2.129 1.000 1.00000 1.850 1.000      2.297  23.000
   32 1.860 1.580  2.140 1.000 1.00000 1.860 1.000      5.662  23.000
   33 1.880 1.598  2.162 1.000 1.00000 1.880 1.000     12.124  23.000
   34 1.860 1.580  2.140 1.000 1.00000 1.850 1.000      2.280  23.000
   35 1.860 1.580  2.140 1.000 1.00000 1.850 1.000      3.507  23.000
   36 1.860 1.580  2.140 1.000 1.00000 1.860 1.000      5.898  23.000
   37 1.860 1.580  2.140 1.000 1.00000 1.860 1.000      5.296  23.000
   38 1.860 1.580  2.140 1.000 1.00000 1.850 1.000      4.565  23.000
   39 1.860 1.580  2.140 1.000 1.00000 1.850 1.000      4.327  23.000
   40 1.860 1.580  2.140 1.000 1.00000 1.850 1.000      2.471  23.000
   41 1.860 1.580  2.140 1.000 1.00000 1.850 1.000      2.471  23.000
   42 1.850 1.571  2.129 1.000 1.00000 1.850 1.000      2.566  23.000
   43 1.860 1.580  2.140 1.000 1.00000 1.860 1.000      5.988  23.000
   44 1.860 1.580  2.140 1.000 1.00000 1.850 1.000      2.407  23.000
   45 1.850 1.571  2.129 1.000 1.00000 1.850 1.000      2.331  23.000
   46 1.860 1.580  2.140 1.000 1.00000 1.850 1.000      2.310  23.000
   47 1.850 1.571  2.129 1.000 1.00000 1.850 1.000      2.343  23.000
   48 1.850 1.571  2.129 1.000 1.00000 1.850 1.000      2.380  23.000
   49 1.880 1.598  2.162 1.000 1.00000 1.880 1.000     11.934  23.000
   50 1.870 1.589  2.151 1.000 1.00000 1.880 1.000      7.820  23.000
   51 1.850 1.571  2.129 1.000 1.00000 1.850 1.000      2.275  23.000
   52 1.850 1.571  2.129 1.000 1.00000 1.850 1.000      2.868  23.000
   53 1.860 1.580  2.140 1.000 1.00000 1.850 1.000      2.395  23.000
   54 1.850 1.571  2.129 1.000 1.00000 1.850 1.000      2.276  23.000
   55 1.860 1.580  2.140 1.000 1.00000 1.850 1.000      2.355  23.000
   56 1.870 1.589  2.151 1.000 1.00000 1.880 1.000      8.092  23.000
   57 1.870 1.589  2.151 1.000 1.00000 1.880 1.000      7.116  23.000
   58 1.850 1.571  2.129 1.000 1.00000 1.850 1.000      2.380  23.000
   59 1.850 1.571  2.129 1.000 1.00000 1.850 1.000      2.343  23.000
   60 1.850 1.571  2.129 1.000 1.00000 1.850 1.000      2.719  23.000
   61 1.870 1.589  2.151 1.000 1.00000 1.880 1.000      7.365  23.000
   62 1.850 1.571  2.129 1.000 1.00000 1.850 1.000      2.414  23.000
   63 1.860 1.580  2.140 1.000 1.00000 1.850 1.000      2.299  23.000
   64 1.850 1.571  2.129 1.000 1.00000 1.850 1.000      2.408  23.000
   65 1.860 1.580  2.140 1.000 1.00000 1.850 1.000      3.830  23.000
   66 1.850 1.571  2.129 1.000 1.00000 1.850 1.000      2.402  23.000
   67 1.880 1.598  2.162 1.000 1.00000 1.880 1.000     15.575  23.000
   68 1.860 1.580  2.140 1.000 1.00000 1.850 1.000      3.002  23.000
   69 1.860 1.580  2.140 1.000 1.00000 1.850 1.000      4.974  23.000
   70 1.850 1.571  2.129 1.000 1.00000 1.850 1.000      3.051  23.000
   71 1.850 1.571  2.129 1.000 1.00000 1.850 1.000      2.278  23.000
   72 1.860 1.580  2.140 1.000 1.00000 1.850 1.000      2.425  23.000
   73 1.850 1.571  2.129 1.000 1.00000 1.850 1.000      2.592  23.000
   74 1.850 1.571  2.129 1.000 1.00000 1.850 1.000      2.396  23.000
   75 1.860 1.580  2.140 1.000 1.00000 1.850 1.000      3.130  23.000
   76 1.860 1.580  2.140 1.000 1.00000 1.850 1.000      2.754  23.000
   77 1.850 1.571  2.129 1.000 1.00000 1.850 1.000      2.880  23.000
   78 1.860 1.580  2.140 1.000 1.00000 1.850 1.000      2.364  23.000
   79 1.850 1.571  2.129 1.000 1.00000 1.850 1.000      2.287  23.000
   80 1.880 1.598  2.162 1.000 1.00000 1.880 1.000     16.325  23.000
   81 1.860 1.580  2.140 1.000 1.00000 1.850 1.000      4.304  23.000
   82 1.860 1.580  2.140 1.000 1.00000 1.850 1.000      3.472  23.000
   83 1.860 1.580  2.140 1.000 1.00000 1.850 1.000      2.611  23.000
   84 1.880 1.598  2.162 1.000 1.00000 1.880 1.000     12.956  23.000
   85 1.850 1.571  2.129 1.000 1.00000 1.850 1.000      2.278  23.000
   86 1.880 1.598  2.162 1.000 1.00000 1.880 1.000     14.738  23.000
   87 1.850 1.571  2.129 1.000 1.00000 1.850 1.000      2.352  23.000
   88 1.850 1.571  2.129 1.000 1.00000 1.850 1.000      2.486  23.000
   89 1.850 1.571  2.129 1.000 1.00000 1.850 1.000      2.295  23.000
   90 1.850 1.571  2.129 1.000 1.00000 1.850 1.000      2.445  23.000
   91 1.880 1.598  2.162 1.000 1.00000 1.880 1.000     11.746  23.000
   92 1.860 1.580  2.140 1.000 1.00000 1.850 1.000      2.457  23.000
   93 1.860 1.580  2.140 1.000 1.00000 1.850 1.000      2.431  23.000
   94 1.860 1.580  2.140 1.000 1.00000 1.850 1.000      2.743  23.000
   95 1.850 1.571  2.129 1.000 1.00000 1.850 1.000      2.601  23.000
   96 1.860 1.580  2.140 1.000 1.00000 1.850 1.000      2.464  23.000
   97 1.850 1.571  2.129 1.000 1.00000 1.850 1.000      2.275  23.000
   98 1.860 1.580  2.140 1.000 1.00000 1.850 1.000      4.715  23.000
   99 1.860 1.580  2.140 1.000 1.00000 1.850 1.000      2.884  23.000
  100 1.860 1.580  2.140 1.000 1.00000 1.850 1.000      5.000  23.000
  101 1.870 1.589  2.151 1.000 1.00000 1.880 1.000      7.654  23.000
  102 1.850 1.571  2.129 1.000 1.00000 1.850 1.000      2.347  23.000
  103 1.880 1.598  2.162 1.000 1.00000 1.880 1.000     12.806  23.000
  104 1.850 1.571  2.129 1.000 1.00000 1.850 1.000      2.335  23.000
  105 1.860 1.580  2.140 1.000 1.00000 1.850 1.000      3.437  23.000
  106 1.860 1.580  2.140 1.000 1.00000 1.850 1.000      4.016  23.000
  107 1.850 1.571  2.129 1.000 1.00000 1.850 1.000      2.275  23.000
  108 1.850 1.571  2.129 1.000 1.00000 1.850 1.000      2.317  23.000
  109 1.870 1.589  2.151 1.000 1.00000 1.880 1.000      8.267  23.000
  110 1.860 1.580  2.140 1.000 1.00000 1.850 1.000      3.974  23.000
  111 1.860 1.580  2.140 1.000 1.00000 1.850 1.000      2.679  23.000
  112 1.850 1.571  2.129 1.000 1.00000 1.850 1.000      2.282  23.000
  113 1.860 1.580  2.140 1.000 1.00000 1.850 1.000      3.238  23.000
  114 1.860 1.580  2.140 1.000 1.00000 1.850 1.000      2.285  23.000
  115 1.850 1.571  2.129 1.000 1.00000 1.850 1.000      2.426  23.000
  116 1.860 1.580  2.140 1.000 1.00000 1.850 1.000      4.921  23.000
  117 1.860 1.580  2.140 1.000 1.00000 1.850 1.000      2.508  23.000
  118 1.850 1.571  2.129 1.000 1.00000 1.850 1.000      2.420  23.000
  119 1.850 1.571  2.129 1.000 1.00000 1.850 1.000      2.709  23.000
  120 1.850 1.571  2.129 1.000 1.00000 1.850 1.000      2.275  23.000
  121 1.870 1.589  2.151 1.000 1.00000 1.880 1.000      8.196  23.000
  122 1.860 1.580  2.140 1.000 1.00000 1.850 1.000      2.327  23.000
  123 1.860 1.580  2.140 1.000 1.00000 1.860 1.000      5.434  23.000
  124 1.860 1.580  2.140 1.000 1.00000 1.850 1.000      3.974  23.000
  125 1.860 1.580  2.140 1.000 1.00000 1.860 1.000      5.490  23.000
  126 1.860 1.580  2.140 1.000 1.00000 1.850 1.000      4.590  23.000
  127 1.850 1.571  2.129 1.000 1.00000 1.850 1.000      2.282  23.000
  128 1.860 1.580  2.140 1.000 1.00000 1.860 1.000      6.525  23.000
  129 1.860 1.580  2.140 1.000 1.00000 1.850 1.000      2.948  23.000
  130 1.860 1.580  2.140 1.000 1.00000 1.850 1.000      2.323  23.000
  131 1.860 1.580  2.140 1.000 1.00000 1.850 1.000      2.451  23.000
  132 1.850 1.571  2.129 1.000 1.00000 1.850 1.000      2.276  23.000
  133 1.850 1.571  2.129 1.000 1.00000 1.850 1.000      2.668  23.000
  134 1.860 1.580  2.140 1.000 1.00000 1.850 1.000      2.304  23.000
  135 1.850 1.571  2.129 1.000 1.00000 1.850 1.000      2.396  23.000
  136 1.850 1.571  2.129 1.000 1.00000 1.850 1.000      2.295  23.000
  137 1.860 1.580  2.140 1.000 1.00000 1.850 1.000      4.541  23.000
  138 1.860 1.580  2.140 1.000 1.00000 1.850 1.000      3.673  23.000
  139 1.870 1.589  2.151 1.000 1.00000 1.880 1.000      7.524  23.000
  140 1.850 1.571  2.129 1.000 1.00000 1.850 1.000      2.549  23.000
  141 1.850 1.571  2.129 1.000 1.00000 1.850 1.000      2.688  23.000
  142 1.850 1.571  2.129 1.000 1.00000 1.850 1.000      2.752  23.000
  143 1.860 1.580  2.140 1.000 1.00000 1.850 1.000      2.532  23.000
  144 1.860 1.580  2.140 1.000 1.00000 1.860 1.000      5.547  23.000
  145 1.850 1.571  2.129 1.000 1.00000 1.850 1.000      2.275  23.000
  146 1.860 1.580  2.140 1.000 1.00000 1.860 1.000      5.215  23.000
  147 1.880 1.598  2.162 1.000 1.00000 1.880 1.000     10.840  23.000
  148 1.860 1.580  2.140 1.000 1.00000 1.850 1.000      2.532  23.000
  149 1.850 1.571  2.129 1.000 1.00000 1.850 1.000      2.557  23.000
  150 1.880 1.598  2.162 1.000 1.00000 1.880 1.000     10.449  23.000
  151 1.860 1.580  2.140 1.000 1.00000 1.850 1.000      3.402  23.000
  152 1.880 1.598  2.162 1.000 1.00000 1.880 1.000     13.619  23.000
  153 1.850 1.571  2.129 1.000 1.00000 1.850 1.000      2.648  23.000
  154 1.860 1.580  2.140 1.000 1.00000 1.850 1.000      4.125  23.000
  155 1.860 1.580  2.140 1.000 1.00000 1.850 1.000      3.302  23.000
  156 1.850 1.571  2.129 1.000 1.00000 1.850 1.000      2.276  23.000
  157 1.860 1.580  2.140 1.000 1.00000 1.850 1.000      2.471  23.000
  158 1.850 1.571  2.129 1.000 1.00000 1.850 1.000      2.356  23.000
  159 1.850 1.571  2.129 1.000 1.00000 1.850 1.000      2.832  23.000
  160 1.850 1.571  2.129 1.000 1.00000 1.850 1.000      2.317  23.000
  161 1.860 1.580  2.140 1.000 1.00000 1.850 1.000      3.454  23.000
  162 1.850 1.571  2.129 1.000 1.00000 1.850 1.000      2.308  23.000
  163 1.860 1.580  2.140 1.000 1.00000 1.850 1.000      5.108  23.000
  164 1.860 1.580  2.140 1.000 1.00000 1.850 1.000      4.541  23.000
  165 1.860 1.580  2.140 1.000 1.00000 1.850 1.000      3.891  23.000
  166 1.870 1.589  2.151 1.000 1.00000 1.880 1.000      9.423  23.000
  167 1.850 1.571  2.129 1.000 1.00000 1.850 1.000      2.892  23.000
  168 1.860 1.580  2.140 1.000 1.00000 1.850 1.000      2.884  23.000
  169 1.860 1.580  2.140 1.000 1.00000 1.850 1.000      2.379  23.000
  170 1.850 1.571  2.129 1.000 1.00000 1.850 1.000      2.575  23.000
  171 1.850 1.571  2.129 1.000 1.00000 1.850 1.000      2.458  23.000
  172 1.860 1.580  2.140 1.000 1.00000 1.860 1.000      6.142  23.000
  173 1.850 1.571  2.129 1.000 1.00000 1.850 1.000      2.343  23.000
  174 1.860 1.580  2.140 1.000 1.00000 1.850 1.000      3.238  23.000
  175 1.850 1.571  2.129 1.000 1.00000 1.850 1.000      2.295  23.000
  176 1.880 1.598  2.162 1.000 1.00000 1.880 1.000     10.796  23.000
  177 1.870 1.589  2.151 1.000 1.00000 1.880 1.000      7.787  23.000
  178 1.870 1.589  2.151 1.000 1.00000 1.880 1.000      7.622  23.000
  179 1.860 1.580  2.140 1.000 1.00000 1.850 1.000      2.743  23.000
  180 1.860 1.580  2.140 1.000 1.00000 1.850 1.000      3.507  23.000
  181 1.850 1.571  2.129 1.000 1.00000 1.850 1.000      2.311  23.000
  182 1.860 1.580  2.140 1.000 1.00000 1.850 1.000      2.630  23.000
  183 1.880 1.598  2.162 1.000 1.00000 1.880 1.000     10.840  23.000
  184 1.860 1.580  2.140 1.000 1.00000 1.850 1.000      2.304  23.000
  185 1.870 1.589  2.151 1.000 1.00000 1.880 1.000      7.116  23.000
  186 1.850 1.571  2.129 1.000 1.00000 1.850 1.000      2.479  23.000
  187 1.870 1.589  2.151 1.000 1.00000 1.860 1.000      6.927  23.000
  188 1.860 1.580  2.140 1.000 1.00000 1.860 1.000      5.633  23.000
  189 1.860 1.580  2.140 1.000 1.00000 1.850 1.000      2.294  23.000
  190 1.860 1.580  2.140 1.000 1.00000 1.850 1.000      3.368  23.000
  191 1.860 1.580  2.140 1.000 1.00000 1.850 1.000      2.395  23.000
  192 1.860 1.580  2.140 1.000 1.00000 1.850 1.000      3.043  23.000
  193 1.880 1.598  2.162 1.000 1.00000 1.880 1.000     13.464  23.000
  194 1.860 1.580  2.140 1.000 1.00000 1.850 1.000      2.479  23.000
  195 1.850 1.571  2.129 1.000 1.00000 1.850 1.000      2.276  23.000
  196 1.870 1.589  2.151 1.000 1.00000 1.880 1.000      7.239  23.000
  197 1.850 1.571  2.129 1.000 1.00000 1.850 1.000      2.386  23.000
  198 1.850 1.571  2.129 1.000 1.00000 1.850 1.000      2.629  23.000
  199 1.860 1.580  2.140 1.000 1.00000 1.850 1.000      2.277  23.000
  200 1.870 1.589  2.151 1.000 1.00000 1.860 1.000      6.893  23.000
  201 1.850 1.571  2.129 1.000 1.00000 1.850 1.000      2.314  23.000
  202 1.860 1.580  2.140 1.000 1.00000 1.860 1.000      6.395  23.000
  203 1.850 1.571  2.129 1.000 1.00000 1.850 1.000      2.361  23.000
  204 1.880 1.598  2.162 1.000 1.00000 1.880 1.000     11.607  23.000
  205 1.850 1.571  2.129 1.000 1.00000 1.850 1.000      2.361  23.000
  206 1.860 1.580  2.140 1.000 1.00000 1.850 1.000      3.043  23.000
  207 1.860 1.580  2.140 1.000 1.00000 1.850 1.000      3.160  23.000
  208 1.850 1.571  2.129 1.000 1.00000 1.850 1.000      2.525  23.000
  209 1.860 1.580  2.140 1.000 1.00000 1.860 1.000      5.519  23.000
  210 1.850 1.571  2.129 1.000 1.00000 1.850 1.000      2.284  23.000
  211 1.860 1.580  2.140 1.000 1.00000 1.850 1.000      3.770  23.000
  212 1.860 1.580  2.140 1.000 1.00000 1.850 1.000      2.859  23.000
  213 1.860 1.580  2.140 1.000 1.00000 1.850 1.000      2.299  23.000
  214 1.860 1.580  2.140 1.000 1.00000 1.850 1.000      3.617  23.000
  215 1.860 1.580  2.140 1.000 1.00000 1.850 1.000      2.280  23.000
  216 1.860 1.580  2.140 1.000 1.00000 1.850 1.000      3.871  23.000
  217 1.860 1.580  2.140 1.000 1.00000 1.850 1.000      2.935  23.000
  218 1.860 1.580  2.140 1.000 1.00000 1.850 1.000      2.811  23.000
  219 1.850 1.571  2.129 1.000 1.00000 1.850 1.000      2.451  23.000
  220 1.860 1.580  2.140 1.000 1.00000 1.850 1.000      2.290  23.000
  221 1.860 1.580  2.140 1.000 1.00000 1.850 1.000      2.342  23.000
  222 1.860 1.580  2.140 1.000 1.00000 1.850 1.000      2.859  23.000
  223 1.870 1.589  2.151 1.000 1.00000 1.880 1.000      9.150  23.000
  224 1.860 1.580  2.140 1.000 1.00000 1.850 1.000      3.002  23.000
  225 1.860 1.580  2.140 1.000 1.00000 1.850 1.000      2.961  23.000
  226 1.860 1.580  2.140 1.000 1.00000 1.850 1.000      2.516  23.000
  227 1.850 1.571  2.129 1.000 1.00000 1.850 1.000      3.023  23.000
  228 1.850 1.571  2.129 1.000 1.00000 1.850 1.000      2.275  23.000
  229 1.850 1.571  2.129 1.000 1.00000 1.850 1.000      2.486  23.000
  230 1.850 1.571  2.129 1.000 1.00000 1.850 1.000      2.278  23.000
  231 1.860 1.580  2.140 1.000 1.00000 1.850 1.000      4.715  23.000
  232 1.860 1.580  2.140 1.000 1.00000 1.850 1.000      2.299  23.000
  233 1.890 1.607  2.173 1.000 1.00000 1.890 1.000     30.591  23.000
  234 1.850 1.571  2.129 1.000 1.00000 1.850 1.000      2.370  23.000
  235 1.850 1.571  2.129 1.000 1.00000 1.850 1.000      2.314  23.000
  236 1.860 1.580  2.140 1.000 1.00000 1.850 1.000      2.338  23.000
  237 1.880 1.598  2.162 1.000 1.00000 1.880 1.000     10.449  23.000
  238 1.880 1.598  2.162 1.000 1.00000 1.880 1.000     13.827  23.000
  239 1.850 1.571  2.129 1.000 1.00000 1.850 1.000      2.763  23.000
  240 1.860 1.580  2.140 1.000 1.00000 1.850 1.000      4.921  23.000
  241 1.850 1.571  2.129 1.000 1.00000 1.850 1.000      2.557  23.000
  242 1.880 1.598  2.162 1.000 1.00000 1.880 1.000     10.622  23.000
  243 1.850 1.571  2.129 1.000 1.00000 1.850 1.000      2.465  23.000
  244 1.890 1.607  2.173 1.000 1.00000 1.890 1.000     58.275  23.000
  245 1.860 1.580  2.140 1.000 1.00000 1.850 1.000      5.108  23.000
  246 1.860 1.580  2.140 1.000 1.00000 1.850 1.000      2.283  23.000
  247 1.850 1.571  2.129 1.000 1.00000 1.850 1.000      2.509  23.000
  248 1.850 1.571  2.129 1.000 1.00000 1.850 1.000      2.525  23.000
  249 1.860 1.580  2.140 1.000 1.00000 1.850 1.000      2.611  23.000
  250 1.860 1.580  2.140 1.000 1.00000 1.850 1.000      3.043  23.000
  251 1.860 1.580  2.140 1.000 1.00000 1.850 1.000      2.330  23.000
  252 1.850 1.571  2.129 1.000 1.00000 1.850 1.000      2.276  23.000
  253 1.850 1.571  2.129 1.000 1.00000 1.850 1.000      2.370  23.000
  254 1.850 1.571  2.129 1.000 1.00000 1.850 1.000      2.774  23.000
  255 1.850 1.571  2.129 1.000 1.00000 1.850 1.000      2.276  23.000
  256 1.850 1.571  2.129 1.000 1.00000 1.850 1.000      2.361  23.000
  257 1.860 1.580  2.140 1.000 1.00000 1.850 1.000      2.407  23.000
  258 1.860 1.580  2.140 1.000 1.00000 1.850 1.000      3.222  23.000
  259 1.850 1.571  2.129 1.000 1.00000 1.850 1.000      2.391  23.000
  260 1.850 1.571  2.129 1.000 1.00000 1.850 1.000      2.287  23.000
  261 1.850 1.571  2.129 1.000 1.00000 1.850 1.000      2.278  23.000
  262 1.850 1.571  2.129 1.000 1.00000 1.850 1.000      2.855  23.000
  263 1.870 1.589  2.151 1.000 1.00000 1.880 1.000      7.557  23.000
  264 1.860 1.580  2.140 1.000 1.00000 1.850 1.000      3.101  23.000
  265 1.860 1.580  2.140 1.000 1.00000 1.850 1.000      2.721  23.000
  266 1.870 1.589  2.151 1.000 1.00000 1.880 1.000      8.058  23.000
  267 1.860 1.580  2.140 1.000 1.00000 1.850 1.000      3.254  23.000
  268 1.860 1.580  2.140 1.000 1.00000 1.850 1.000      4.715  23.000
  269 1.850 1.571  2.129 1.000 1.00000 1.850 1.000      2.317  23.000
  270 1.860 1.580  2.140 1.000 1.00000 1.850 1.000      4.059  23.000
  271 1.860 1.580  2.140 1.000 1.00000 1.860 1.000      5.242  23.000
  272 1.850 1.571  2.129 1.000 1.00000 1.850 1.000      2.281  23.000
  273 1.860 1.580  2.140 1.000 1.00000 1.850 1.000      2.302  23.000
  274 1.870 1.589  2.151 1.000 1.00000 1.880 1.000      8.373  23.000
  275 1.850 1.571  2.129 1.000 1.00000 1.850 1.000      2.352  23.000
  276 1.860 1.580  2.140 1.000 1.00000 1.850 1.000      2.464  23.000
  277 1.880 1.598  2.162 1.000 1.00000 1.880 1.000     13.412  23.000
  278 1.850 1.571  2.129 1.000 1.00000 1.850 1.000      2.445  23.000
  279 1.850 1.571  2.129 1.000 1.00000 1.850 1.000      2.275  23.000
  280 1.850 1.571  2.129 1.000 1.00000 1.850 1.000      2.347  23.000
  281 1.860 1.580  2.140 1.000 1.00000 1.850 1.000      3.130  23.000
  282 1.880 1.598  2.162 1.000 1.00000 1.880 1.000     10.884  23.000
  283 1.850 1.571  2.129 1.000 1.00000 1.850 1.000      2.305  23.000
  284 1.880 1.598  2.162 1.000 1.00000 1.880 1.000     13.775  23.000
  285 1.860 1.580  2.140 1.000 1.00000 1.850 1.000      2.401  23.000
  286 1.870 1.589  2.151 1.000 1.00000 1.880 1.000      9.036  23.000
  287 1.870 1.589  2.151 1.000 1.00000 1.880 1.000      7.333  23.000
  288 1.860 1.580  2.140 1.000 1.00000 1.850 1.000      2.471  23.000
  289 1.850 1.571  2.129 1.000 1.00000 1.850 1.000      2.308  23.000
  290 1.870 1.589  2.151 1.000 1.00000 1.880 1.000      9.344  23.000
  291 1.860 1.580  2.140 1.000 1.00000 1.850 1.000      2.360  23.000
  292 1.850 1.571  2.129 1.000 1.00000 1.850 1.000      2.327  23.000
  293 1.860 1.580  2.140 1.000 1.00000 1.850 1.000      4.715  23.000
  294 1.850 1.571  2.129 1.000 1.00000 1.850 1.000      2.279  23.000
  295 1.860 1.580  2.140 1.000 1.00000 1.850 1.000      3.932  23.000
  296 1.860 1.580  2.140 1.000 1.00000 1.860 1.000      6.173  23.000
  297 1.860 1.580  2.140 1.000 1.00000 1.850 1.000      2.464  23.000
  298 1.860 1.580  2.140 1.000 1.00000 1.850 1.000      2.471  23.000
  299 1.850 1.571  2.129 1.000 1.00000 1.850 1.000      2.601  23.000
  300 1.850 1.571  2.129 1.000 1.00000 1.850 1.000      2.668  23.000
  301 1.880 1.598  2.162 1.000 1.00000 1.880 1.000     18.021  23.000
  302 1.870 1.589  2.151 1.000 1.00000 1.880 1.000      8.885  23.000
  303 1.860 1.580  2.140 1.000 1.00000 1.860 1.000      6.558  23.000
  304 1.870 1.589  2.151 1.000 1.00000 1.860 1.000      6.859  23.000
  305 1.850 1.571  2.129 1.000 1.00000 1.850 1.000      2.557  23.000
  306 1.850 1.571  2.129 1.000 1.00000 1.850 1.000      2.698  23.000
  307 1.850 1.571  2.129 1.000 1.00000 1.850 1.000      2.291  23.000
  308 1.850 1.571  2.129 1.000 1.00000 1.850 1.000      2.276  23.000
  309 1.870 1.589  2.151 1.000 1.00000 1.880 1.000      7.177  23.000
  310 1.860 1.580  2.140 1.000 1.00000 1.850 1.000      4.921  23.000
  311 1.860 1.580  2.140 1.000 1.00000 1.850 1.000      4.517  23.000
  312 1.850 1.571  2.129 1.000 1.00000 1.850 1.000      2.414  23.000
  313 1.880 1.598  2.162 1.000 1.00000 1.880 1.000     10.884  23.000
  314 1.860 1.580  2.140 1.000 1.00000 1.850 1.000      2.721  23.000
  315 1.860 1.580  2.140 1.000 1.00000 1.850 1.000      2.896  23.000
  316 1.860 1.580  2.140 1.000 1.00000 1.850 1.000      2.669  23.000
  317 1.850 1.571  2.129 1.000 1.00000 1.850 1.000      2.465  23.000
  318 1.860 1.580  2.140 1.000 1.00000 1.850 1.000      2.961  23.000
  319 1.860 1.580  2.140 1.000 1.00000 1.850 1.000      2.369  23.000
  320 1.850 1.571  2.129 1.000 1.00000 1.850 1.000      2.284  23.000
  321 1.860 1.580  2.140 1.000 1.00000 1.850 1.000      2.493  23.000
  322 1.860 1.580  2.140 1.000 1.00000 1.850 1.000      2.583  23.000
  323 1.850 1.571  2.129 1.000 1.00000 1.850 1.000      2.293  23.000
  324 1.850 1.571  2.129 1.000 1.00000 1.850 1.000      2.275  23.000
  325 1.850 1.571  2.129 1.000 1.00000 1.850 1.000      2.501  23.000
  326 1.860 1.580  2.140 1.000 1.00000 1.850 1.000      2.896  23.000
  327 1.850 1.571  2.129 1.000 1.00000 1.850 1.000      2.281  23.000
  328 1.860 1.580  2.140 1.000 1.00000 1.860 1.000      6.268  23.000
  329 1.860 1.580  2.140 1.000 1.00000 1.850 1.000      2.437  23.000
  330 1.850 1.571  2.129 1.000 1.00000 1.850 1.000      2.868  23.000
  331 1.860 1.580  2.140 1.000 1.00000 1.850 1.000      2.601  23.000
  332 1.850 1.571  2.129 1.000 1.00000 1.850 1.000      2.278  23.000
  333 1.850 1.571  2.129 1.000 1.00000 1.850 1.000      2.601  23.000
  334 1.860 1.580  2.140 1.000 1.00000 1.850 1.000      2.279  23.000
  335 1.860 1.580  2.140 1.000 1.00000 1.850 1.000      3.029  23.000
  336 1.850 1.571  2.129 1.000 1.00000 1.850 1.000      2.678  23.000
  337 1.860 1.580  2.140 1.000 1.00000 1.850 1.000      3.598  23.000
  338 1.850 1.571  2.129 1.000 1.00000 1.850 1.000      2.285  23.000
  339 1.860 1.580  2.140 1.000 1.00000 1.850 1.000      3.507  23.000
  340 1.850 1.571  2.129 1.000 1.00000 1.850 1.000      2.774  23.000
  341 1.860 1.580  2.140 1.000 1.00000 1.850 1.000      2.922  23.000
  342 1.860 1.580  2.140 1.000 1.00000 1.850 1.000      2.721  23.000
  343 1.850 1.571  2.129 1.000 1.00000 1.850 1.000      2.287  23.000
  344 1.850 1.571  2.129 1.000 1.00000 1.850 1.000      2.276  23.000
  345 1.860 1.580  2.140 1.000 1.00000 1.850 1.000      2.369  23.000
  346 1.860 1.580  2.140 1.000 1.00000 1.850 1.000      2.444  23.000
  347 1.880 1.598  2.162 1.000 1.00000 1.880 1.000     11.196  23.000
  348 1.860 1.580  2.140 1.000 1.00000 1.850 1.000      2.385  23.000
  349 1.850 1.571  2.129 1.000 1.00000 1.850 1.000      2.396  23.000
  350 1.860 1.580  2.140 1.000 1.00000 1.850 1.000      3.953  23.000
  351 1.860 1.580  2.140 1.000 1.00000 1.850 1.000      4.059  23.000
  352 1.850 1.571  2.129 1.000 1.00000 1.850 1.000      2.880  23.000
  353 1.850 1.571  2.129 1.000 1.00000 1.850 1.000      2.356  23.000
  354 1.850 1.571  2.129 1.000 1.00000 1.850 1.000      2.458  23.000
  355 1.850 1.571  2.129 1.000 1.00000 1.850 1.000      2.276  23.000
  356 1.860 1.580  2.140 1.000 1.00000 1.850 1.000      2.395  23.000
  357 1.860 1.580  2.140 1.000 1.00000 1.860 1.000      5.958  23.000
  358 1.860 1.580  2.140 1.000 1.00000 1.850 1.000      2.282  23.000
  359 1.860 1.580  2.140 1.000 1.00000 1.850 1.000      4.259  23.000
  360 1.870 1.589  2.151 1.000 1.00000 1.880 1.000      8.553  23.000
  361 1.860 1.580  2.140 1.000 1.00000 1.850 1.000      2.413  23.000
  362 1.860 1.580  2.140 1.000 1.00000 1.850 1.000      3.810  23.000
  363 1.860 1.580  2.140 1.000 1.00000 1.850 1.000      2.316  23.000
  364 1.850 1.571  2.129 1.000 1.00000 1.850 1.000      2.275  23.000
  365 1.850 1.571  2.129 1.000 1.00000 1.850 1.000      2.276  23.000
  366 1.860 1.580  2.140 1.000 1.00000 1.850 1.000      3.454  23.000
  367 1.850 1.571  2.129 1.000 1.00000 1.850 1.000      2.280  23.000
  368 1.860 1.580  2.140 1.000 1.00000 1.850 1.000      2.330  23.000
  369 1.850 1.571  2.129 1.000 1.00000 1.850 1.000      2.314  23.000
  370 1.860 1.580  2.140 1.000 1.00000 1.850 1.000      2.288  23.000
  371 1.860 1.580  2.140 1.000 1.00000 1.850 1.000      3.932  23.000
  372 1.850 1.571  2.129 1.000 1.00000 1.850 1.000      2.275  23.000
  373 1.850 1.571  2.129 1.000 1.00000 1.850 1.000      2.541  23.000
  374 1.870 1.589  2.151 1.000 1.00000 1.880 1.000      8.127  23.000
  375 1.880 1.598  2.162 1.000 1.00000 1.880 1.000     17.220  23.000
  376 1.860 1.580  2.140 1.000 1.00000 1.850 1.000      4.817  23.000
  377 1.860 1.580  2.140 1.000 1.00000 1.850 1.000      2.493  23.000
  378 1.860 1.580  2.140 1.000 1.00000 1.850 1.000      3.385  23.000
  379 1.850 1.571  2.129 1.000 1.00000 1.850 1.000      2.275  23.000
  380 1.850 1.571  2.129 1.000 1.00000 1.850 1.000      2.352  23.000
  381 1.870 1.589  2.151 1.000 1.00000 1.880 1.000      7.753  23.000
  382 1.860 1.580  2.140 1.000 1.00000 1.860 1.000      5.928  23.000
  383 1.850 1.571  2.129 1.000 1.00000 1.850 1.000      2.601  23.000
  384 1.860 1.580  2.140 1.000 1.00000 1.850 1.000      2.351  23.000
  385 1.860 1.580  2.140 1.000 1.00000 1.850 1.000      2.290  23.000
  386 1.860 1.580  2.140 1.000 1.00000 1.850 1.000      2.304  23.000
  387 1.850 1.571  2.129 1.000 1.00000 1.850 1.000      2.370  23.000
  388 1.860 1.580  2.140 1.000 1.00000 1.860 1.000      5.406  23.000
  389 1.850 1.571  2.129 1.000 1.00000 1.850 1.000      2.549  23.000
  390 1.860 1.580  2.140 1.000 1.00000 1.850 1.000      2.601  23.000
  391 1.860 1.580  2.140 1.000 1.00000 1.850 1.000      2.532  23.000
  392 1.850 1.571  2.129 1.000 1.00000 1.850 1.000      2.566  23.000
  393 1.850 1.571  2.129 1.000 1.00000 1.850 1.000      2.276  23.000
  394 1.850 1.571  2.129 1.000 1.00000 1.850 1.000      2.275  23.000
  395 1.880 1.598  2.162 1.000 1.00000 1.880 1.000     12.757  23.000
  396 1.860 1.580  2.140 1.000 1.00000 1.850 1.000      4.038  23.000
  397 1.860 1.580  2.140 1.000 1.00000 1.850 1.000      3.145  23.000
  398 1.860 1.580  2.140 1.000 1.00000 1.850 1.000      2.471  23.000
  399 1.850 1.571  2.129 1.000 1.00000 1.850 1.000      2.601  23.000
  400 1.850 1.571  2.129 1.000 1.00000 1.850 1.000      2.291  23.000
  401 1.860 1.580  2.140 1.000 1.00000 1.850 1.000      2.457  23.000
  402 1.860 1.580  2.140 1.000 1.00000 1.850 1.000      3.830  23.000
  403 1.860 1.580  2.140 1.000 1.00000 1.850 1.000      2.425  23.000
  404 1.850 1.571  2.129 1.000 1.00000 1.850 1.000      2.361  23.000
  405 1.860 1.580  2.140 1.000 1.00000 1.850 1.000      4.191  23.000
  406 1.860 1.580  2.140 1.000 1.00000 1.850 1.000      3.002  23.000
  407 1.860 1.580  2.140 1.000 1.00000 1.850 1.000      2.799  23.000
  408 1.860 1.580  2.140 1.000 1.00000 1.850 1.000      2.549  23.000
  409 1.860 1.580  2.140 1.000 1.00000 1.850 1.000      2.486  23.000
  410 1.850 1.571  2.129 1.000 1.00000 1.850 1.000      2.276  23.000
  411 1.860 1.580  2.140 1.000 1.00000 1.850 1.000      2.299  23.000
  412 1.860 1.580  2.140 1.000 1.00000 1.850 1.000      4.397  23.000
  413 1.860 1.580  2.140 1.000 1.00000 1.850 1.000      2.342  23.000
  414 1.860 1.580  2.140 1.000 1.00000 1.850 1.000      2.278  23.000
  415 1.850 1.571  2.129 1.000 1.00000 1.850 1.000      2.297  23.000
  416 1.860 1.580  2.140 1.000 1.00000 1.850 1.000      2.338  23.000
  417 1.860 1.580  2.140 1.000 1.00000 1.850 1.000      3.507  23.000
  418 1.850 1.571  2.129 1.000 1.00000 1.850 1.000      2.639  23.000
  419 1.850 1.571  2.129 1.000 1.00000 1.850 1.000      2.365  23.000
  420 1.850 1.571  2.129 1.000 1.00000 1.850 1.000      2.279  23.000
  421 1.850 1.571  2.129 1.000 1.00000 1.850 1.000      2.308  23.000
  422 1.860 1.580  2.140 1.000 1.00000 1.860 1.000      5.162  23.000
  423 1.850 1.571  2.129 1.000 1.00000 1.850 1.000      2.752  23.000
  424 1.850 1.571  2.129 1.000 1.00000 1.850 1.000      2.408  23.000
  425 1.850 1.571  2.129 1.000 1.00000 1.850 1.000      2.289  23.000
  426 1.860 1.580  2.140 1.000 1.00000 1.850 1.000      2.287  23.000
  427 1.880 1.598  2.162 1.000 1.00000 1.880 1.000     10.840  23.000
  428 1.850 1.571  2.129 1.000 1.00000 1.850 1.000      2.501  23.000
  429 1.860 1.580  2.140 1.000 1.00000 1.850 1.000      2.379  23.000
  430 1.850 1.571  2.129 1.000 1.00000 1.850 1.000      2.943  23.000
  431 1.860 1.580  2.140 1.000 1.00000 1.850 1.000      4.895  23.000
  432 1.850 1.571  2.129 1.000 1.00000 1.850 1.000      2.678  23.000
  433 1.860 1.580  2.140 1.000 1.00000 1.850 1.000      4.469  23.000
  434 1.850 1.571  2.129 1.000 1.00000 1.850 1.000      2.868  23.000
  435 1.880 1.598  2.162 1.000 1.00000 1.880 1.000     14.251  23.000
  436 1.860 1.580  2.140 1.000 1.00000 1.850 1.000      2.288  23.000
  437 1.870 1.589  2.151 1.000 1.00000 1.880 1.000      9.228  23.000
  438 1.850 1.571  2.129 1.000 1.00000 1.850 1.000      2.311  23.000
  439 1.860 1.580  2.140 1.000 1.00000 1.850 1.000      3.385  23.000
  440 1.870 1.589  2.151 1.000 1.00000 1.880 1.000      7.396  23.000
  441 1.850 1.571  2.129 1.000 1.00000 1.850 1.000      2.275  23.000
  442 1.860 1.580  2.140 1.000 1.00000 1.850 1.000      2.369  23.000
  443 1.850 1.571  2.129 1.000 1.00000 1.850 1.000      2.386  23.000
  444 1.850 1.571  2.129 1.000 1.00000 1.850 1.000      2.352  23.000
  445 1.860 1.580  2.140 1.000 1.00000 1.850 1.000      5.027  23.000
  446 1.860 1.580  2.140 1.000 1.00000 1.850 1.000      2.283  23.000
  447 1.860 1.580  2.140 1.000 1.00000 1.850 1.000      2.407  23.000
  448 1.860 1.580  2.140 1.000 1.00000 1.850 1.000      2.307  23.000
  449 1.860 1.580  2.140 1.000 1.00000 1.850 1.000      3.636  23.000
  450 1.860 1.580  2.140 1.000 1.00000 1.850 1.000      2.754  23.000
  451 1.850 1.571  2.129 1.000 1.00000 1.850 1.000      2.300  23.000
  452 1.870 1.589  2.151 1.000 1.00000 1.880 1.000      8.023  23.000
  453 1.860 1.580  2.140 1.000 1.00000 1.850 1.000      3.598  23.000
  454 1.850 1.571  2.129 1.000 1.00000 1.850 1.000      2.445  23.000
  455 1.850 1.571  2.129 1.000 1.00000 1.850 1.000      2.719  23.000
  456 1.870 1.589  2.151 1.000 1.00000 1.880 1.000      9.502  23.000
  457 1.860 1.580  2.140 1.000 1.00000 1.850 1.000      4.016  23.000
  458 1.860 1.580  2.140 1.000 1.00000 1.850 1.000      2.566  23.000
  459 1.850 1.571  2.129 1.000 1.00000 1.850 1.000      2.678  23.000
  460 1.850 1.571  2.129 1.000 1.00000 1.850 1.000      2.592  23.000
  461 1.850 1.571  2.129 1.000 1.00000 1.850 1.000      2.352  23.000
  462 1.860 1.580  2.140 1.000 1.00000 1.850 1.000      2.549  23.000
  463 1.890 1.607  2.173 1.000 1.00000 1.890 1.000     24.039  23.000
  464 1.860 1.580  2.140 1.000 1.00000 1.850 1.000      2.390  23.000
  465 1.860 1.580  2.140 1.000 1.00000 1.850 1.000      4.947  23.000
  466 1.870 1.589  2.151 1.000 1.00000 1.880 1.000      7.854  23.000
  467 1.860 1.580  2.140 1.000 1.00000 1.850 1.000      2.700  23.000
  468 1.860 1.580  2.140 1.000 1.00000 1.850 1.000      3.751  23.000
  469 1.860 1.580  2.140 1.000 1.00000 1.850 1.000      2.285  23.000
  470 1.870 1.589  2.151 1.000 1.00000 1.880 1.000      8.231  23.000
  471 1.850 1.571  2.129 1.000 1.00000 1.850 1.000      2.327  23.000
  472 1.860 1.580  2.140 1.000 1.00000 1.850 1.000      3.974  23.000
  473 1.860 1.580  2.140 1.000 1.00000 1.850 1.000      2.304  23.000
  474 1.860 1.580  2.140 1.000 1.00000 1.850 1.000      2.457  23.000
  475 1.870 1.589  2.151 1.000 1.00000 1.880 1.000      9.987  23.000
  476 1.860 1.580  2.140 1.000 1.00000 1.850 1.000      2.379  23.000
  477 1.860 1.580  2.140 1.000 1.00000 1.850 1.000      2.351  23.000
  478 1.860 1.580  2.140 1.000 1.00000 1.850 1.000      2.280  23.000
  479 1.860 1.580  2.140 1.000 1.00000 1.850 1.000      3.191  23.000
  480 1.860 1.580  2.140 1.000 1.00000 1.850 1.000      2.338  23.000
  481 1.850 1.571  2.129 1.000 1.00000 1.850 1.000      3.010  23.000
  482 1.870 1.589  2.151 1.000 1.00000 1.880 1.000      9.864  23.000
  483 1.870 1.589  2.151 1.000 1.00000 1.880 1.000      8.662  23.000
  484 1.860 1.580  2.140 1.000 1.00000 1.850 1.000      2.374  23.000
  485 1.860 1.580  2.140 1.000 1.00000 1.850 1.000      3.974  23.000
  486 1.860 1.580  2.140 1.000 1.00000 1.850 1.000      4.974  23.000
  487 1.870 1.589  2.151 1.000 1.00000 1.880 1.000      8.092  23.000
  488 1.850 1.571  2.129 1.000 1.00000 1.850 1.000      2.525  23.000
  489 1.870 1.589  2.151 1.000 1.00000 1.880 1.000      7.428  23.000
  490 1.850 1.571  2.129 1.000 1.00000 1.850 1.000      2.308  23.000
  491 1.850 1.571  2.129 1.000 1.00000 1.850 1.000      2.284  23.000
  492 1.870 1.589  2.151 1.000 1.00000 1.880 1.000      9.905  23.000
  493 1.860 1.580  2.140 1.000 1.00000 1.850 1.000      2.871  23.000
  494 1.870 1.589  2.151 1.000 1.00000 1.860 1.000      6.893  23.000
  495 1.860 1.580  2.140 1.000 1.00000 1.850 1.000      4.590  23.000
  496 1.850 1.571  2.129 1.000 1.00000 1.850 1.000      2.486  23.000
  497 1.870 1.589  2.151 1.000 1.00000 1.880 1.000      9.150  23.000
  498 1.860 1.580  2.140 1.000 1.00000 1.850 1.000      2.700  23.000
  499 1.850 1.571  2.129 1.000 1.00000 1.850 1.000      2.276  23.000
  500 1.850 1.571  2.129 1.000 1.00000 1.850 1.000      2.276  23.000
  501 1.860 1.580  2.140 1.000 1.00000 1.850 1.000      2.327  23.000
  502 1.860 1.580  2.140 1.000 1.00000 1.850 1.000      3.525  23.000
  503 1.880 1.598  2.162 1.000 1.00000 1.880 1.000     11.887  23.000
  504 1.870 1.589  2.151 1.000 1.00000 1.880 1.000      7.787  23.000
  505 1.860 1.580  2.140 1.000 1.00000 1.850 1.000      2.277  23.000
  506 1.850 1.571  2.129 1.000 1.00000 1.850 1.000      2.943  23.000
  507 1.850 1.571  2.129 1.000 1.00000 1.850 1.000      2.402  23.000
  508 1.860 1.580  2.140 1.000 1.00000 1.850 1.000      4.541  23.000
  509 1.860 1.580  2.140 1.000 1.00000 1.850 1.000      2.278  23.000
  510 1.860 1.580  2.140 1.000 1.00000 1.850 1.000      3.368  23.000
  511 1.850 1.571  2.129 1.000 1.00000 1.850 1.000      2.287  23.000
  512 1.880 1.598  2.162 1.000 1.00000 1.880 1.000     11.515  23.000
  513 1.860 1.580  2.140 1.000 1.00000 1.850 1.000      4.421  23.000
  514 1.850 1.571  2.129 1.000 1.00000 1.850 1.000      2.494  23.000
  515 1.860 1.580  2.140 1.000 1.00000 1.850 1.000      2.710  23.000
  516 1.850 1.571  2.129 1.000 1.00000 1.850 1.000      2.314  23.000
  517 1.860 1.580  2.140 1.000 1.00000 1.850 1.000      2.385  23.000
  518 1.860 1.580  2.140 1.000 1.00000 1.850 1.000      3.002  23.000
  519 1.860 1.580  2.140 1.000 1.00000 1.860 1.000      5.691  23.000
  520 1.850 1.571  2.129 1.000 1.00000 1.850 1.000      2.370  23.000
  521 1.860 1.580  2.140 1.000 1.00000 1.850 1.000      2.922  23.000
  522 1.860 1.580  2.140 1.000 1.00000 1.850 1.000      2.355  23.000
  523 1.870 1.589  2.151 1.000 1.00000 1.880 1.000      8.516  23.000
  524 1.860 1.580  2.140 1.000 1.00000 1.860 1.000      6.428  23.000
  525 1.850 1.571  2.129 1.000 1.00000 1.850 1.000      2.275  23.000
  526 1.850 1.571  2.129 1.000 1.00000 1.850 1.000      2.479  23.000
  527 1.850 1.571  2.129 1.000 1.00000 1.850 1.000      2.533  23.000
  528 1.860 1.580  2.140 1.000 1.00000 1.850 1.000      4.469  23.000
  529 1.850 1.571  2.129 1.000 1.00000 1.850 1.000      2.408  23.000
  530 1.860 1.580  2.140 1.000 1.00000 1.850 1.000      2.379  23.000
  531 1.850 1.571  2.129 1.000 1.00000 1.850 1.000      2.525  23.000
  532 1.860 1.580  2.140 1.000 1.00000 1.850 1.000      3.974  23.000
  533 1.850 1.571  2.129 1.000 1.00000 1.850 1.000      2.311  23.000
  534 1.860 1.580  2.140 1.000 1.00000 1.850 1.000      4.236  23.000
  535 1.870 1.589  2.151 1.000 1.00000 1.880 1.000      7.428  23.000
  536 1.850 1.571  2.129 1.000 1.00000 1.850 1.000      2.601  23.000
  537 1.860 1.580  2.140 1.000 1.00000 1.850 1.000      2.360  23.000
  538 1.860 1.580  2.140 1.000 1.00000 1.850 1.000      3.580  23.000
  539 1.860 1.580  2.140 1.000 1.00000 1.850 1.000      2.338  23.000
  540 1.860 1.580  2.140 1.000 1.00000 1.860 1.000      6.624  23.000
  541 1.860 1.580  2.140 1.000 1.00000 1.860 1.000      6.205  23.000
  542 1.850 1.571  2.129 1.000 1.00000 1.850 1.000      2.575  23.000
  543 1.850 1.571  2.129 1.000 1.00000 1.850 1.000      2.426  23.000
  544 1.850 1.571  2.129 1.000 1.00000 1.850 1.000      2.472  23.000
  545 1.860 1.580  2.140 1.000 1.00000 1.850 1.000      3.912  23.000
  546 1.860 1.580  2.140 1.000 1.00000 1.850 1.000      2.437  23.000
  547 1.850 1.571  2.129 1.000 1.00000 1.850 1.000      2.278  23.000
  548 1.850 1.571  2.129 1.000 1.00000 1.850 1.000      2.302  23.000
  549 1.860 1.580  2.140 1.000 1.00000 1.850 1.000      2.374  23.000
  550 1.860 1.580  2.140 1.000 1.00000 1.850 1.000      2.721  23.000
  551 1.850 1.571  2.129 1.000 1.00000 1.850 1.000      2.533  23.000
  552 1.850 1.571  2.129 1.000 1.00000 1.850 1.000      2.284  23.000
  553 1.850 1.571  2.129 1.000 1.00000 1.850 1.000      2.479  23.000
  554 1.850 1.571  2.129 1.000 1.00000 1.850 1.000      2.331  23.000
  555 1.870 1.589  2.151 1.000 1.00000 1.880 1.000      9.502  23.000
  556 1.860 1.580  2.140 1.000 1.00000 1.850 1.000      2.283  23.000
  557 1.880 1.598  2.162 1.000 1.00000 1.880 1.000     18.461  23.000
  558 1.860 1.580  2.140 1.000 1.00000 1.850 1.000      3.222  23.000
  559 1.860 1.580  2.140 1.000 1.00000 1.850 1.000      2.334  23.000
  560 1.860 1.580  2.140 1.000 1.00000 1.850 1.000      2.425  23.000
  561 1.850 1.571  2.129 1.000 1.00000 1.850 1.000      2.380  23.000
  562 1.850 1.571  2.129 1.000 1.00000 1.850 1.000      2.305  23.000
  563 1.850 1.571  2.129 1.000 1.00000 1.850 1.000      2.375  23.000
  564 1.850 1.571  2.129 1.000 1.00000 1.850 1.000      2.408  23.000
  565 1.850 1.571  2.129 1.000 1.00000 1.850 1.000      2.291  23.000
  566 1.880 1.598  2.162 1.000 1.00000 1.880 1.000     13.107  23.000
  567 1.850 1.571  2.129 1.000 1.00000 1.850 1.000      2.356  23.000
  568 1.850 1.571  2.129 1.000 1.00000 1.850 1.000      2.629  23.000
  569 1.850 1.571  2.129 1.000 1.00000 1.850 1.000      2.820  23.000
  570 1.850 1.571  2.129 1.000 1.00000 1.850 1.000      2.365  23.000
  571 1.850 1.571  2.129 1.000 1.00000 1.850 1.000      2.289  23.000
  572 1.860 1.580  2.140 1.000 1.00000 1.850 1.000      4.125  23.000
  573 1.850 1.571  2.129 1.000 1.00000 1.850 1.000      2.494  23.000
  574 1.860 1.580  2.140 1.000 1.00000 1.860 1.000      5.269  23.000
  575 1.860 1.580  2.140 1.000 1.00000 1.850 1.000      2.508  23.000
  576 1.850 1.571  2.129 1.000 1.00000 1.850 1.000      2.402  23.000
  577 1.870 1.589  2.151 1.000 1.00000 1.880 1.000      8.058  23.000
  578 1.860 1.580  2.140 1.000 1.00000 1.850 1.000      2.316  23.000
  579 1.850 1.571  2.129 1.000 1.00000 1.850 1.000      2.472  23.000
  580 1.850 1.571  2.129 1.000 1.00000 1.850 1.000      2.282  23.000
  581 1.860 1.580  2.140 1.000 1.00000 1.850 1.000      2.566  23.000
  582 1.850 1.571  2.129 1.000 1.00000 1.850 1.000      2.289  23.000
  583 1.890 1.607  2.173 1.000 1.00000 1.890 1.000     29.512  23.000
  584 1.850 1.571  2.129 1.000 1.00000 1.850 1.000      2.275  23.000
  585 1.860 1.580  2.140 1.000 1.00000 1.850 1.000      2.732  23.000
  586 1.860 1.580  2.140 1.000 1.00000 1.850 1.000      4.689  23.000
  587 1.860 1.580  2.140 1.000 1.00000 1.850 1.000      3.351  23.000
  588 1.850 1.571  2.129 1.000 1.00000 1.850 1.000      2.370  23.000
  589 1.860 1.580  2.140 1.000 1.00000 1.850 1.000      4.639  23.000
  590 1.860 1.580  2.140 1.000 1.00000 1.850 1.000      2.307  23.000
  591 1.860 1.580  2.140 1.000 1.00000 1.850 1.000      2.988  23.000
  592 1.860 1.580  2.140 1.000 1.00000 1.850 1.000      2.310  23.000
  593 1.850 1.571  2.129 1.000 1.00000 1.850 1.000      2.324  23.000
  594 1.880 1.598  2.162 1.000 1.00000 1.880 1.000     10.796  23.000
  595 1.850 1.571  2.129 1.000 1.00000 1.850 1.000      2.741  23.000
  596 1.850 1.571  2.129 1.000 1.00000 1.850 1.000      2.408  23.000
  597 1.850 1.571  2.129 1.000 1.00000 1.850 1.000      2.293  23.000
  598 1.860 1.580  2.140 1.000 1.00000 1.850 1.000      3.385  23.000
  599 1.880 1.598  2.162 1.000 1.00000 1.880 1.000     10.972  23.000
  600 1.850 1.571  2.129 1.000 1.00000 1.850 1.000      2.678  23.000
  601 1.880 1.598  2.162 1.000 1.00000 1.880 1.000     13.515  23.000
  602 1.850 1.571  2.129 1.000 1.00000 1.850 1.000      2.300  23.000
  603 1.860 1.580  2.140 1.000 1.00000 1.860 1.000      5.749  23.000
  604 1.890 1.607  2.173 1.000 1.00000 1.890 1.000     29.677  23.000
  605 1.850 1.571  2.129 1.000 1.00000 1.850 1.000      2.277  23.000
  606 1.860 1.580  2.140 1.000 1.00000 1.850 1.000      2.823  23.000
  607 1.850 1.571  2.129 1.000 1.00000 1.850 1.000      2.420  23.000
  608 1.850 1.571  2.129 1.000 1.00000 1.850 1.000      2.308  23.000
  609 1.860 1.580  2.140 1.000 1.00000 1.850 1.000      3.525  23.000
  610 1.870 1.589  2.151 1.000 1.00000 1.880 1.000      7.557  23.000
  611 1.850 1.571  2.129 1.000 1.00000 1.850 1.000      2.741  23.000
  612 1.870 1.589  2.151 1.000 1.00000 1.880 1.000      9.987  23.000
  613 1.860 1.580  2.140 1.000 1.00000 1.850 1.000      2.294  23.000
  614 1.870 1.589  2.151 1.000 1.00000 1.880 1.000      9.621  23.000
  615 1.850 1.571  2.129 1.000 1.00000 1.850 1.000      2.275  23.000
  616 1.850 1.571  2.129 1.000 1.00000 1.850 1.000      2.438  23.000
  617 1.860 1.580  2.140 1.000 1.00000 1.860 1.000      6.173  23.000
  618 1.860 1.580  2.140 1.000 1.00000 1.850 1.000      4.947  23.000
  619 1.890 1.607  2.173 1.000 1.00000 1.890 1.000     25.961  23.000
  620 1.860 1.580  2.140 1.000 1.00000 1.850 1.000      2.787  23.000
  621 1.860 1.580  2.140 1.000 1.00000 1.850 1.000      4.541  23.000
  622 1.850 1.571  2.129 1.000 1.00000 1.850 1.000      2.525  23.000
  623 1.850 1.571  2.129 1.000 1.00000 1.850 1.000      2.905  23.000
  624 1.860 1.580  2.140 1.000 1.00000 1.850 1.000      2.988  23.000
  625 1.860 1.580  2.140 1.000 1.00000 1.860 1.000      6.724  23.000
  626 1.860 1.580  2.140 1.000 1.00000 1.850 1.000      2.281  23.000
  627 1.850 1.571  2.129 1.000 1.00000 1.850 1.000      2.302  23.000
  628 1.860 1.580  2.140 1.000 1.00000 1.850 1.000      2.689  23.000
  629 1.860 1.580  2.140 1.000 1.00000 1.850 1.000      2.374  23.000
  630 1.860 1.580  2.140 1.000 1.00000 1.850 1.000      2.351  23.000
  631 1.860 1.580  2.140 1.000 1.00000 1.850 1.000      3.368  23.000
  632 1.850 1.571  2.129 1.000 1.00000 1.850 1.000      2.438  23.000
  633 1.860 1.580  2.140 1.000 1.00000 1.850 1.000      2.948  23.000
  634 1.850 1.571  2.129 1.000 1.00000 1.850 1.000      2.347  23.000
  635 1.850 1.571  2.129 1.000 1.00000 1.850 1.000      2.432  23.000
  636 1.850 1.571  2.129 1.000 1.00000 1.850 1.000      2.709  23.000
  637 1.850 1.571  2.129 1.000 1.00000 1.850 1.000      2.375  23.000
  638 1.850 1.571  2.129 1.000 1.00000 1.850 1.000      2.525  23.000
  639 1.860 1.580  2.140 1.000 1.00000 1.850 1.000      3.891  23.000
  640 1.850 1.571  2.129 1.000 1.00000 1.850 1.000      2.285  23.000
  641 1.860 1.580  2.140 1.000 1.00000 1.850 1.000      3.368  23.000
  642 1.870 1.589  2.151 1.000 1.00000 1.880 1.000      7.055  23.000
  643 1.860 1.580  2.140 1.000 1.00000 1.850 1.000      4.351  23.000
  644 1.860 1.580  2.140 1.000 1.00000 1.850 1.000      2.464  23.000
  645 1.860 1.580  2.140 1.000 1.00000 1.860 1.000      6.690  23.000
  646 1.960 1.670  2.250 1.000 1.00000 1.960 1.000     71.739  23.000
  647 1.850 1.571  2.129 1.000 1.00000 1.850 1.000      2.808  23.000
  648 1.860 1.580  2.140 1.000 1.00000 1.850 1.000      2.307  23.000
  649 1.860 1.580  2.140 1.000 1.00000 1.850 1.000      2.859  23.000
  650 1.860 1.580  2.140 1.000 1.00000 1.860 1.000      5.838  23.000
  651 1.860 1.580  2.140 1.000 1.00000 1.850 1.000      3.145  23.000
  652 1.860 1.580  2.140 1.000 1.00000 1.850 1.000      2.659  23.000
  653 1.870 1.589  2.151 1.000 1.00000 1.880 1.000      7.955  23.000
  654 1.860 1.580  2.140 1.000 1.00000 1.850 1.000      3.351  23.000
  655 1.850 1.571  2.129 1.000 1.00000 1.850 1.000      2.375  23.000
  656 1.860 1.580  2.140 1.000 1.00000 1.850 1.000      4.236  23.000
  657 1.860 1.580  2.140 1.000 1.00000 1.850 1.000      2.342  23.000
  658 1.860 1.580  2.140 1.000 1.00000 1.860 1.000      6.205  23.000
  659 1.870 1.589  2.151 1.000 1.00000 1.880 1.000      7.428  23.000
  660 1.860 1.580  2.140 1.000 1.00000 1.850 1.000      2.532  23.000
  661 1.860 1.580  2.140 1.000 1.00000 1.850 1.000      4.664  23.000
  662 1.870 1.589  2.151 1.000 1.00000 1.880 1.000      7.955  23.000
  663 1.850 1.571  2.129 1.000 1.00000 1.850 1.000      2.282  23.000
  664 1.850 1.571  2.129 1.000 1.00000 1.850 1.000      2.339  23.000
  665 1.860 1.580  2.140 1.000 1.00000 1.850 1.000      2.280  23.000
  666 1.860 1.580  2.140 1.000 1.00000 1.860 1.000      6.236  23.000
  667 1.850 1.571  2.129 1.000 1.00000 1.850 1.000      2.276  23.000
  668 1.860 1.580  2.140 1.000 1.00000 1.850 1.000      2.557  23.000
  669 1.850 1.571  2.129 1.000 1.00000 1.850 1.000      2.279  23.000
  670 1.860 1.580  2.140 1.000 1.00000 1.850 1.000      2.401  23.000
  671 1.860 1.580  2.140 1.000 1.00000 1.850 1.000      2.659  23.000
  672 1.850 1.571  2.129 1.000 1.00000 1.850 1.000      2.678  23.000
  673 1.860 1.580  2.140 1.000 1.00000 1.850 1.000      4.038  23.000
  674 1.850 1.571  2.129 1.000 1.00000 1.850 1.000      2.426  23.000
  675 1.860 1.580  2.140 1.000 1.00000 1.850 1.000      2.689  23.000
  676 1.860 1.580  2.140 1.000 1.00000 1.850 1.000      2.431  23.000
  677 1.860 1.580  2.140 1.000 1.00000 1.850 1.000      3.402  23.000
  678 1.850 1.571  2.129 1.000 1.00000 1.850 1.000      2.620  23.000
  679 1.860 1.580  2.140 1.000 1.00000 1.850 1.000      2.649  23.000
  680 1.850 1.571  2.129 1.000 1.00000 1.850 1.000      2.275  23.000
  681 1.860 1.580  2.140 1.000 1.00000 1.850 1.000      3.731  23.000
  682 1.860 1.580  2.140 1.000 1.00000 1.850 1.000      4.191  23.000
  683 1.880 1.598  2.162 1.000 1.00000 1.880 1.000     15.069  23.000
  684 1.860 1.580  2.140 1.000 1.00000 1.850 1.000      2.302  23.000
  685 1.860 1.580  2.140 1.000 1.00000 1.850 1.000      3.472  23.000
  686 1.850 1.571  2.129 1.000 1.00000 1.850 1.000      2.509  23.000
  687 1.850 1.571  2.129 1.000 1.00000 1.850 1.000      2.402  23.000
  688 1.860 1.580  2.140 1.000 1.00000 1.850 1.000      3.351  23.000
  689 1.860 1.580  2.140 1.000 1.00000 1.850 1.000      4.351  23.000
  690 1.850 1.571  2.129 1.000 1.00000 1.850 1.000      2.525  23.000
  691 1.860 1.580  2.140 1.000 1.00000 1.850 1.000      3.598  23.000
  692 1.860 1.580  2.140 1.000 1.00000 1.850 1.000      2.493  23.000
  693 1.860 1.580  2.140 1.000 1.00000 1.850 1.000      3.932  23.000
  694 1.860 1.580  2.140 1.000 1.00000 1.850 1.000      2.557  23.000
  695 1.860 1.580  2.140 1.000 1.00000 1.850 1.000      2.871  23.000
  696 1.860 1.580  2.140 1.000 1.00000 1.850 1.000      2.909  23.000
  697 1.890 1.607  2.173 1.000 1.00000 1.890 1.000     27.740  23.000
  698 1.860 1.580  2.140 1.000 1.00000 1.850 1.000      2.364  23.000
  699 1.860 1.580  2.140 1.000 1.00000 1.850 1.000      2.583  23.000
  700 1.860 1.580  2.140 1.000 1.00000 1.850 1.000      2.313  23.000
  701 1.860 1.580  2.140 1.000 1.00000 1.850 1.000      2.823  23.000
  702 1.860 1.580  2.140 1.000 1.00000 1.850 1.000      2.297  23.000
  703 1.860 1.580  2.140 1.000 1.00000 1.850 1.000      3.751  23.000
  704 1.850 1.571  2.129 1.000 1.00000 1.850 1.000      2.517  23.000
  705 1.870 1.589  2.151 1.000 1.00000 1.880 1.000      7.302  23.000
  706 1.860 1.580  2.140 1.000 1.00000 1.850 1.000      2.524  23.000
  707 1.860 1.580  2.140 1.000 1.00000 1.860 1.000      5.898  23.000
  708 1.880 1.598  2.162 1.000 1.00000 1.880 1.000     13.567  23.000
  709 1.850 1.571  2.129 1.000 1.00000 1.850 1.000      2.280  23.000
  710 1.890 1.607  2.173 1.000 1.00000 1.890 1.000     21.135  23.000
  711 1.850 1.571  2.129 1.000 1.00000 1.850 1.000      2.287  23.000
  712 1.850 1.571  2.129 1.000 1.00000 1.850 1.000      2.996  23.000
  713 1.870 1.589  2.151 1.000 1.00000 1.880 1.000      9.189  23.000
  714 1.850 1.571  2.129 1.000 1.00000 1.850 1.000      2.486  23.000
  715 1.850 1.571  2.129 1.000 1.00000 1.850 1.000      2.445  23.000
  716 1.850 1.571  2.129 1.000 1.00000 1.850 1.000      2.287  23.000
  717 1.880 1.598  2.162 1.000 1.00000 1.880 1.000     11.793  23.000
  718 1.860 1.580  2.140 1.000 1.00000 1.850 1.000      2.975  23.000
  719 1.860 1.580  2.140 1.000 1.00000 1.860 1.000      6.428  23.000
  720 1.860 1.580  2.140 1.000 1.00000 1.860 1.000      5.406  23.000
  721 1.850 1.571  2.129 1.000 1.00000 1.850 1.000      2.414  23.000
  722 1.850 1.571  2.129 1.000 1.00000 1.850 1.000      2.698  23.000
  723 1.860 1.580  2.140 1.000 1.00000 1.850 1.000      3.580  23.000
  724 1.860 1.580  2.140 1.000 1.00000 1.850 1.000      2.884  23.000
  725 1.850 1.571  2.129 1.000 1.00000 1.850 1.000      2.276  23.000
  726 1.860 1.580  2.140 1.000 1.00000 1.850 1.000      2.294  23.000
  727 1.860 1.580  2.140 1.000 1.00000 1.850 1.000      2.283  23.000
  728 1.880 1.598  2.162 1.000 1.00000 1.880 1.000     17.342  23.000
  729 1.860 1.580  2.140 1.000 1.00000 1.850 1.000      5.054  23.000
  730 1.870 1.589  2.151 1.000 1.00000 1.880 1.000      7.239  23.000
  731 1.850 1.571  2.129 1.000 1.00000 1.850 1.000      2.566  23.000
  732 1.860 1.580  2.140 1.000 1.00000 1.850 1.000      2.479  23.000
  733 1.860 1.580  2.140 1.000 1.00000 1.850 1.000      3.072  23.000
  734 1.850 1.571  2.129 1.000 1.00000 1.850 1.000      2.276  23.000
  735 1.870 1.589  2.151 1.000 1.00000 1.880 1.000     10.195  23.000
  736 1.860 1.580  2.140 1.000 1.00000 1.850 1.000      2.471  23.000
  737 1.850 1.571  2.129 1.000 1.00000 1.850 1.000      2.509  23.000
  738 1.850 1.571  2.129 1.000 1.00000 1.850 1.000      2.302  23.000
  739 1.860 1.580  2.140 1.000 1.00000 1.850 1.000      4.517  23.000
  740 1.860 1.580  2.140 1.000 1.00000 1.850 1.000      2.679  23.000
  741 1.860 1.580  2.140 1.000 1.00000 1.850 1.000      3.058  23.000
  742 1.860 1.580  2.140 1.000 1.00000 1.850 1.000      2.787  23.000
  743 1.860 1.580  2.140 1.000 1.00000 1.850 1.000      2.355  23.000
  744 1.850 1.571  2.129 1.000 1.00000 1.850 1.000      2.276  23.000
  745 1.860 1.580  2.140 1.000 1.00000 1.850 1.000      2.948  23.000
  746 1.860 1.580  2.140 1.000 1.00000 1.850 1.000      2.327  23.000
  747 1.860 1.580  2.140 1.000 1.00000 1.850 1.000      2.327  23.000
  748 1.860 1.580  2.140 1.000 1.00000 1.850 1.000      2.754  23.000
  749 1.860 1.580  2.140 1.000 1.00000 1.860 1.000      6.268  23.000
  750 1.850 1.571  2.129 1.000 1.00000 1.850 1.000      2.285  23.000
  751 1.870 1.589  2.151 1.000 1.00000 1.880 1.000      9.189  23.000
  752 1.860 1.580  2.140 1.000 1.00000 1.850 1.000      2.501  23.000
  753 1.860 1.580  2.140 1.000 1.00000 1.850 1.000      3.507  23.000
  754 1.870 1.589  2.151 1.000 1.00000 1.880 1.000      9.423  23.000
  755 1.860 1.580  2.140 1.000 1.00000 1.850 1.000      2.909  23.000
  756 1.870 1.589  2.151 1.000 1.00000 1.880 1.000      8.196  23.000
  757 1.850 1.571  2.129 1.000 1.00000 1.850 1.000      2.291  23.000
  758 1.870 1.589  2.151 1.000 1.00000 1.880 1.000      8.810  23.000
  759 1.860 1.580  2.140 1.000 1.00000 1.860 1.000      5.575  23.000
  760 1.860 1.580  2.140 1.000 1.00000 1.850 1.000      5.054  23.000
  761 1.860 1.580  2.140 1.000 1.00000 1.850 1.000      3.472  23.000
  762 1.860 1.580  2.140 1.000 1.00000 1.850 1.000      2.351  23.000
  763 1.880 1.598  2.162 1.000 1.00000 1.880 1.000     10.928  23.000
  764 1.860 1.580  2.140 1.000 1.00000 1.850 1.000      4.213  23.000
  765 1.860 1.580  2.140 1.000 1.00000 1.850 1.000      2.320  23.000
  766 1.880 1.598  2.162 1.000 1.00000 1.880 1.000     12.609  23.000
  767 1.860 1.580  2.140 1.000 1.00000 1.850 1.000      3.810  23.000
  768 1.860 1.580  2.140 1.000 1.00000 1.850 1.000      2.419  23.000
  769 1.880 1.598  2.162 1.000 1.00000 1.880 1.000     11.106  23.000
  770 1.850 1.571  2.129 1.000 1.00000 1.850 1.000      2.335  23.000
  771 1.860 1.580  2.140 1.000 1.00000 1.850 1.000      2.323  23.000
  772 1.860 1.580  2.140 1.000 1.00000 1.850 1.000      2.413  23.000
  773 1.870 1.589  2.151 1.000 1.00000 1.860 1.000      6.791  23.000
  774 1.860 1.580  2.140 1.000 1.00000 1.850 1.000      4.421  23.000
  775 1.880 1.598  2.162 1.000 1.00000 1.880 1.000     12.124  23.000
  776 1.850 1.571  2.129 1.000 1.00000 1.850 1.000      2.380  23.000
  777 1.860 1.580  2.140 1.000 1.00000 1.850 1.000      2.611  23.000
  778 1.850 1.571  2.129 1.000 1.00000 1.850 1.000      2.276  23.000
  779 1.860 1.580  2.140 1.000 1.00000 1.850 1.000      2.297  23.000
  780 1.850 1.571  2.129 1.000 1.00000 1.850 1.000      2.533  23.000
  781 1.860 1.580  2.140 1.000 1.00000 1.860 1.000      5.162  23.000
  782 1.850 1.571  2.129 1.000 1.00000 1.850 1.000      2.996  23.000
  783 1.850 1.571  2.129 1.000 1.00000 1.850 1.000      2.525  23.000
  784 1.850 1.571  2.129 1.000 1.00000 1.850 1.000      2.517  23.000
  785 1.860 1.580  2.140 1.000 1.00000 1.850 1.000      4.947  23.000
  786 1.880 1.598  2.162 1.000 1.00000 1.880 1.000     13.671  23.000
  787 1.870 1.589  2.151 1.000 1.00000 1.880 1.000      8.302  23.000
  788 1.860 1.580  2.140 1.000 1.00000 1.850 1.000      3.419  23.000
  789 1.850 1.571  2.129 1.000 1.00000 1.850 1.000      2.525  23.000
  790 1.850 1.571  2.129 1.000 1.00000 1.850 1.000      2.339  23.000
  791 1.850 1.571  2.129 1.000 1.00000 1.850 1.000      2.276  23.000
  792 1.870 1.589  2.151 1.000 1.00000 1.880 1.000     10.070  23.000
  793 1.850 1.571  2.129 1.000 1.00000 1.850 1.000      2.486  23.000
  794 1.860 1.580  2.140 1.000 1.00000 1.850 1.000      3.712  23.000
  795 1.860 1.580  2.140 1.000 1.00000 1.860 1.000      5.324  23.000
  796 1.880 1.598  2.162 1.000 1.00000 1.890 1.000     20.415  23.000
  797 1.860 1.580  2.140 1.000 1.00000 1.850 1.000      3.368  23.000
  798 1.850 1.571  2.129 1.000 1.00000 1.850 1.000      2.343  23.000
  799 1.860 1.580  2.140 1.000 1.00000 1.850 1.000      2.364  23.000
  800 1.860 1.580  2.140 1.000 1.00000 1.850 1.000      2.323  23.000
  801 1.860 1.580  2.140 1.000 1.00000 1.850 1.000      2.425  23.000
  802 1.850 1.571  2.129 1.000 1.00000 1.850 1.000      2.785  23.000
  803 1.850 1.571  2.129 1.000 1.00000 1.850 1.000      2.300  23.000
  804 1.860 1.580  2.140 1.000 1.00000 1.850 1.000      2.444  23.000
  805 1.860 1.580  2.140 1.000 1.00000 1.860 1.000      6.236  23.000
  806 1.850 1.571  2.129 1.000 1.00000 1.850 1.000      3.037  23.000
  807 1.860 1.580  2.140 1.000 1.00000 1.850 1.000      2.566  23.000
  808 1.850 1.571  2.129 1.000 1.00000 1.850 1.000      2.275  23.000
  809 1.860 1.580  2.140 1.000 1.00000 1.860 1.000      5.691  23.000
  810 1.850 1.571  2.129 1.000 1.00000 1.850 1.000      2.557  23.000
  811 1.860 1.580  2.140 1.000 1.00000 1.850 1.000      2.294  23.000
  812 1.850 1.571  2.129 1.000 1.00000 1.850 1.000      2.320  23.000
  813 1.880 1.598  2.162 1.000 1.00000 1.890 1.000     19.839  23.000
  814 1.850 1.571  2.129 1.000 1.00000 1.850 1.000      2.575  23.000
  815 1.850 1.571  2.129 1.000 1.00000 1.850 1.000      2.438  23.000
  816 1.850 1.571  2.129 1.000 1.00000 1.850 1.000      2.445  23.000
  817 1.860 1.580  2.140 1.000 1.00000 1.850 1.000      2.493  23.000
  818 1.860 1.580  2.140 1.000 1.00000 1.850 1.000      2.302  23.000
  819 1.850 1.571  2.129 1.000 1.00000 1.850 1.000      2.280  23.000
  820 1.860 1.580  2.140 1.000 1.00000 1.850 1.000      4.191  23.000
  821 1.860 1.580  2.140 1.000 1.00000 1.850 1.000      2.355  23.000
  822 1.850 1.571  2.129 1.000 1.00000 1.850 1.000      2.275  23.000
  823 1.860 1.580  2.140 1.000 1.00000 1.850 1.000      3.891  23.000
  824 1.880 1.598  2.162 1.000 1.00000 1.880 1.000     15.861  23.000
  825 1.860 1.580  2.140 1.000 1.00000 1.850 1.000      2.444  23.000
  826 1.860 1.580  2.140 1.000 1.00000 1.850 1.000      3.254  23.000
  827 1.860 1.580  2.140 1.000 1.00000 1.850 1.000      4.921  23.000
  828 1.860 1.580  2.140 1.000 1.00000 1.850 1.000      2.334  23.000
  829 1.860 1.580  2.140 1.000 1.00000 1.850 1.000      2.292  23.000
  830 1.860 1.580  2.140 1.000 1.00000 1.850 1.000      3.015  23.000
  831 1.850 1.571  2.129 1.000 1.00000 1.850 1.000      2.339  23.000
  832 1.860 1.580  2.140 1.000 1.00000 1.850 1.000      3.029  23.000
  833 1.860 1.580  2.140 1.000 1.00000 1.850 1.000      2.334  23.000
  834 1.860 1.580  2.140 1.000 1.00000 1.850 1.000      2.501  23.000
  835 1.850 1.571  2.129 1.000 1.00000 1.850 1.000      2.741  23.000
  836 1.850 1.571  2.129 1.000 1.00000 1.850 1.000      2.752  23.000
  837 1.860 1.580  2.140 1.000 1.00000 1.850 1.000      3.507  23.000
  838 1.870 1.589  2.151 1.000 1.00000 1.880 1.000      9.542  23.000
  839 1.860 1.580  2.140 1.000 1.00000 1.850 1.000      2.601  23.000
  840 1.850 1.571  2.129 1.000 1.00000 1.850 1.000      2.352  23.000
  841 1.860 1.580  2.140 1.000 1.00000 1.850 1.000      2.323  23.000
  842 1.860 1.580  2.140 1.000 1.00000 1.850 1.000      4.664  23.000
  843 1.860 1.580  2.140 1.000 1.00000 1.850 1.000      2.776  23.000
  844 1.880 1.598  2.162 1.000 1.00000 1.880 1.000     11.106  23.000
  845 1.860 1.580  2.140 1.000 1.00000 1.850 1.000      2.297  23.000
  846 1.850 1.571  2.129 1.000 1.00000 1.850 1.000      2.432  23.000
  847 1.860 1.580  2.140 1.000 1.00000 1.850 1.000      2.437  23.000
  848 1.850 1.571  2.129 1.000 1.00000 1.850 1.000      2.276  23.000
  849 1.850 1.571  2.129 1.000 1.00000 1.850 1.000      2.583  23.000
  850 1.860 1.580  2.140 1.000 1.00000 1.850 1.000      2.540  23.000
  851 1.860 1.580  2.140 1.000 1.00000 1.850 1.000      2.334  23.000
  852 1.860 1.580  2.140 1.000 1.00000 1.850 1.000      2.342  23.000
  853 1.860 1.580  2.140 1.000 1.00000 1.850 1.000      2.583  23.000
  854 1.860 1.580  2.140 1.000 1.00000 1.850 1.000      2.516  23.000
  855 1.860 1.580  2.140 1.000 1.00000 1.860 1.000      5.434  23.000
  856 1.860 1.580  2.140 1.000 1.00000 1.850 1.000      4.715  23.000
  857 1.860 1.580  2.140 1.000 1.00000 1.850 1.000      2.278  23.000
  858 1.860 1.580  2.140 1.000 1.00000 1.850 1.000      2.557  23.000
  859 1.860 1.580  2.140 1.000 1.00000 1.850 1.000      3.286  23.000
  860 1.850 1.571  2.129 1.000 1.00000 1.850 1.000      2.356  23.000
  861 1.860 1.580  2.140 1.000 1.00000 1.850 1.000      2.988  23.000
  862 1.850 1.571  2.129 1.000 1.00000 1.850 1.000      2.352  23.000
  863 1.850 1.571  2.129 1.000 1.00000 1.850 1.000      2.276  23.000
  864 1.850 1.571  2.129 1.000 1.00000 1.850 1.000      2.509  23.000
  865 1.860 1.580  2.140 1.000 1.00000 1.850 1.000      4.615  23.000
  866 1.860 1.580  2.140 1.000 1.00000 1.850 1.000      2.310  23.000
  867 1.870 1.589  2.151 1.000 1.00000 1.880 1.000     10.070  23.000
  868 1.850 1.571  2.129 1.000 1.00000 1.850 1.000      2.678  23.000
  869 1.880 1.598  2.162 1.000 1.00000 1.880 1.000     14.251  23.000
  870 1.860 1.580  2.140 1.000 1.00000 1.850 1.000      2.700  23.000
  871 1.850 1.571  2.129 1.000 1.00000 1.850 1.000      2.280  23.000
  872 1.860 1.580  2.140 1.000 1.00000 1.850 1.000      2.776  23.000
  873 1.850 1.571  2.129 1.000 1.00000 1.850 1.000      2.501  23.000
  874 1.860 1.580  2.140 1.000 1.00000 1.850 1.000      5.081  23.000
  875 1.850 1.571  2.129 1.000 1.00000 1.850 1.000      2.486  23.000
  876 1.860 1.580  2.140 1.000 1.00000 1.850 1.000      4.059  23.000
  877 1.860 1.580  2.140 1.000 1.00000 1.850 1.000      4.947  23.000
  878 1.880 1.598  2.162 1.000 1.00000 1.880 1.000     12.560  23.000
  879 1.850 1.571  2.129 1.000 1.00000 1.850 1.000      2.324  23.000
  880 1.860 1.580  2.140 1.000 1.00000 1.850 1.000      4.947  23.000
  881 1.860 1.580  2.140 1.000 1.00000 1.850 1.000      3.790  23.000
  882 1.850 1.571  2.129 1.000 1.00000 1.850 1.000      2.361  23.000
  883 1.860 1.580  2.140 1.000 1.00000 1.850 1.000      2.351  23.000
  884 1.860 1.580  2.140 1.000 1.00000 1.850 1.000      5.054  23.000
  885 1.850 1.571  2.129 1.000 1.00000 1.850 1.000      2.648  23.000
  886 1.860 1.580  2.140 1.000 1.00000 1.850 1.000      2.679  23.000
  887 1.860 1.580  2.140 1.000 1.00000 1.850 1.000      2.611  23.000
  888 1.890 1.607  2.173 1.000 1.00000 1.890 1.000     22.695  23.000
  889 1.850 1.571  2.129 1.000 1.00000 1.850 1.000      2.327  23.000
  890 1.860 1.580  2.140 1.000 1.00000 1.850 1.000      2.342  23.000
  891 1.850 1.571  2.129 1.000 1.00000 1.850 1.000      2.797  23.000
  892 1.870 1.589  2.151 1.000 1.00000 1.880 1.000      7.921  23.000
  893 1.860 1.580  2.140 1.000 1.00000 1.850 1.000      2.346  23.000
  894 1.870 1.589  2.151 1.000 1.00000 1.880 1.000      7.955  23.000
  895 1.870 1.589  2.151 1.000 1.00000 1.880 1.000      9.905  23.000
  896 1.860 1.580  2.140 1.000 1.00000 1.860 1.000      5.188  23.000
  897 1.870 1.589  2.151 1.000 1.00000 1.880 1.000      7.396  23.000
  898 1.860 1.580  2.140 1.000 1.00000 1.860 1.000      6.363  23.000
  899 1.860 1.580  2.140 1.000 1.00000 1.850 1.000      2.835  23.000
  900 1.860 1.580  2.140 1.000 1.00000 1.850 1.000      2.342  23.000
  901 1.860 1.580  2.140 1.000 1.00000 1.850 1.000      4.304  23.000
  902 1.850 1.571  2.129 1.000 1.00000 1.850 1.000      2.517  23.000
  903 1.860 1.580  2.140 1.000 1.00000 1.850 1.000      2.811  23.000
  904 1.850 1.571  2.129 1.000 1.00000 1.850 1.000      2.620  23.000
  905 1.860 1.580  2.140 1.000 1.00000 1.860 1.000      5.691  23.000
  906 1.860 1.580  2.140 1.000 1.00000 1.850 1.000      3.693  23.000
  907 1.860 1.580  2.140 1.000 1.00000 1.850 1.000      2.765  23.000
  908 1.850 1.571  2.129 1.000 1.00000 1.850 1.000      2.282  23.000
  909 1.860 1.580  2.140 1.000 1.00000 1.850 1.000      2.327  23.000
  910 1.890 1.607  2.173 1.000 1.00000 1.890 1.000     26.418  23.000
  911 1.880 1.598  2.162 1.000 1.00000 1.890 1.000     19.336  23.000
  912 1.860 1.580  2.140 1.000 1.00000 1.850 1.000      2.524  23.000
  913 1.850 1.571  2.129 1.000 1.00000 1.850 1.000      2.352  23.000
  914 1.860 1.580  2.140 1.000 1.00000 1.850 1.000      2.304  23.000
  915 1.860 1.580  2.140 1.000 1.00000 1.850 1.000      2.859  23.000
  916 1.870 1.589  2.151 1.000 1.00000 1.880 1.000      7.055  23.000
  917 1.860 1.580  2.140 1.000 1.00000 1.850 1.000      2.294  23.000
  918 1.860 1.580  2.140 1.000 1.00000 1.850 1.000      2.464  23.000
  919 1.860 1.580  2.140 1.000 1.00000 1.850 1.000      4.689  23.000
  920 1.860 1.580  2.140 1.000 1.00000 1.850 1.000      2.710  23.000
  921 1.870 1.589  2.151 1.000 1.00000 1.880 1.000      9.905  23.000
  922 1.860 1.580  2.140 1.000 1.00000 1.850 1.000      2.401  23.000
  923 1.850 1.571  2.129 1.000 1.00000 1.850 1.000      2.320  23.000
  924 1.860 1.580  2.140 1.000 1.00000 1.850 1.000      4.895  23.000
  925 1.850 1.571  2.129 1.000 1.00000 1.850 1.000      2.320  23.000
  926 1.850 1.571  2.129 1.000 1.00000 1.850 1.000      2.420  23.000
  927 1.860 1.580  2.140 1.000 1.00000 1.850 1.000      2.302  23.000
  928 1.850 1.571  2.129 1.000 1.00000 1.850 1.000      2.629  23.000
  929 1.860 1.580  2.140 1.000 1.00000 1.860 1.000      5.749  23.000
  930 1.860 1.580  2.140 1.000 1.00000 1.860 1.000      5.519  23.000
  931 1.860 1.580  2.140 1.000 1.00000 1.850 1.000      5.108  23.000
  932 1.860 1.580  2.140 1.000 1.00000 1.850 1.000      2.776  23.000
  933 1.850 1.571  2.129 1.000 1.00000 1.850 1.000      2.276  23.000
  934 1.880 1.598  2.162 1.000 1.00000 1.880 1.000     10.407  23.000
  935 1.870 1.589  2.151 1.000 1.00000 1.860 1.000      6.893  23.000
  936 1.860 1.580  2.140 1.000 1.00000 1.850 1.000      2.338  23.000
  937 1.850 1.571  2.129 1.000 1.00000 1.850 1.000      2.610  23.000
  938 1.860 1.580  2.140 1.000 1.00000 1.850 1.000      3.850  23.000
  939 1.860 1.580  2.140 1.000 1.00000 1.850 1.000      3.712  23.000
  940 1.860 1.580  2.140 1.000 1.00000 1.850 1.000      3.437  23.000
  941 1.850 1.571  2.129 1.000 1.00000 1.850 1.000      2.832  23.000
  942 1.860 1.580  2.140 1.000 1.00000 1.850 1.000      2.407  23.000
  943 1.850 1.571  2.129 1.000 1.00000 1.850 1.000      2.752  23.000
  944 1.860 1.580  2.140 1.000 1.00000 1.850 1.000      4.842  23.000
  945 1.860 1.580  2.140 1.000 1.00000 1.850 1.000      4.421  23.000
  946 1.860 1.580  2.140 1.000 1.00000 1.850 1.000      2.280  23.000
  947 1.850 1.571  2.129 1.000 1.00000 1.850 1.000      2.380  23.000
  948 1.850 1.571  2.129 1.000 1.00000 1.850 1.000      2.486  23.000
  949 1.860 1.580  2.140 1.000 1.00000 1.850 1.000      2.360  23.000
  950 1.860 1.580  2.140 1.000 1.00000 1.850 1.000      2.287  23.000
  951 1.860 1.580  2.140 1.000 1.00000 1.850 1.000      2.385  23.000
  952 1.860 1.580  2.140 1.000 1.00000 1.850 1.000      3.101  23.000
  953 1.850 1.571  2.129 1.000 1.00000 1.850 1.000      2.438  23.000
  954 1.850 1.571  2.129 1.000 1.00000 1.850 1.000      2.327  23.000
  955 1.870 1.589  2.151 1.000 1.00000 1.880 1.000      9.189  23.000
  956 1.850 1.571  2.129 1.000 1.00000 1.850 1.000      2.275  23.000
  957 1.860 1.580  2.140 1.000 1.00000 1.850 1.000      2.327  23.000
  958 1.890 1.607  2.173 1.000 1.00000 1.890 1.000     22.350  23.000
  959 1.850 1.571  2.129 1.000 1.00000 1.850 1.000      3.010  23.000
  960 1.860 1.580  2.140 1.000 1.00000 1.850 1.000      4.715  23.000
  961 1.860 1.580  2.140 1.000 1.00000 1.850 1.000      2.811  23.000
  962 1.860 1.580  2.140 1.000 1.00000 1.850 1.000      3.489  23.000
  963 1.850 1.571  2.129 1.000 1.00000 1.850 1.000      2.698  23.000
  964 1.860 1.580  2.140 1.000 1.00000 1.850 1.000      3.871  23.000
  965 1.860 1.580  2.140 1.000 1.00000 1.850 1.000      2.282  23.000
  966 1.850 1.571  2.129 1.000 1.00000 1.850 1.000      2.709  23.000
  967 1.860 1.580  2.140 1.000 1.00000 1.850 1.000      2.884  23.000
  968 1.850 1.571  2.129 1.000 1.00000 1.850 1.000      2.472  23.000
  969 1.870 1.589  2.151 1.000 1.00000 1.880 1.000      7.396  23.000
  970 1.860 1.580  2.140 1.000 1.00000 1.850 1.000      2.279  23.000
  971 1.870 1.589  2.151 1.000 1.00000 1.880 1.000     10.237  23.000
  972 1.880 1.598  2.162 1.000 1.00000 1.880 1.000     18.716  23.000
  973 1.860 1.580  2.140 1.000 1.00000 1.850 1.000      2.316  23.000
  974 1.850 1.571  2.129 1.000 1.00000 1.850 1.000      2.276  23.000
  975 1.860 1.580  2.140 1.000 1.00000 1.850 1.000      3.790  23.000
  976 1.860 1.580  2.140 1.000 1.00000 1.850 1.000      3.932  23.000
  977 1.860 1.580  2.140 1.000 1.00000 1.850 1.000      2.280  23.000
  978 1.850 1.571  2.129 1.000 1.00000 1.850 1.000      2.275  23.000
  979 1.850 1.571  2.129 1.000 1.00000 1.850 1.000      2.629  23.000
  980 1.890 1.607  2.173 1.000 1.00000 1.890 1.000     24.184  23.000
  981 1.850 1.571  2.129 1.000 1.00000 1.850 1.000      2.509  23.000
  982 1.860 1.580  2.140 1.000 1.00000 1.860 1.000      5.575  23.000
  983 1.860 1.580  2.140 1.000 1.00000 1.850 1.000      3.029  23.000
  984 1.850 1.571  2.129 1.000 1.00000 1.850 1.000      2.300  23.000
  985 1.850 1.571  2.129 1.000 1.00000 1.850 1.000      2.302  23.000
  986 1.870 1.589  2.151 1.000 1.00000 1.880 1.000      9.823  23.000
  987 1.860 1.580  2.140 1.000 1.00000 1.850 1.000      2.313  23.000
  988 1.870 1.589  2.151 1.000 1.00000 1.880 1.000      7.989  23.000
  989 1.870 1.589  2.151 1.000 1.00000 1.880 1.000      9.344  23.000
  990 1.860 1.580  2.140 1.000 1.00000 1.850 1.000      3.043  23.000
  991 1.860 1.580  2.140 1.000 1.00000 1.850 1.000      2.451  23.000
  992 1.860 1.580  2.140 1.000 1.00000 1.860 1.000      6.173  23.000
  993 1.880 1.598  2.162 1.000 1.00000 1.880 1.000     14.359  23.000
  994 1.860 1.580  2.140 1.000 1.00000 1.850 1.000      3.810  23.000
  995 1.850 1.571  2.129 1.000 1.00000 1.850 1.000      2.275  23.000
  996 1.860 1.580  2.140 1.000 1.00000 1.850 1.000      2.823  23.000
  997 1.850 1.571  2.129 1.000 1.00000 1.850 1.000      2.305  23.000
  998 1.870 1.589  2.151 1.000 1.00000 1.860 1.000      6.859  23.000
  999 1.850 1.571  2.129 1.000 1.00000 1.850 1.000      2.275  23.000
 1000 1.850 1.571  2.129 1.000 1.00000 1.850 1.000      2.356  23.000
 1001 1.850 1.571  2.129 1.000 1.00000 1.850 1.000      2.445  23.000
 1002 1.850 1.571  2.129 1.000 1.00000 1.850 1.000      2.566  23.000
 1003 1.860 1.580  2.140 1.000 1.00000 1.850 1.000      4.974  23.000
 1004 1.860 1.580  2.140 1.000 1.00000 1.850 1.000      3.419  23.000
 1005 1.860 1.580  2.140 1.000 1.00000 1.860 1.000      6.331  23.000
 1006 1.860 1.580  2.140 1.000 1.00000 1.850 1.000      2.639  23.000
 1007 1.850 1.571  2.129 1.000 1.00000 1.850 1.000      2.287  23.000
 1008 1.860 1.580  2.140 1.000 1.00000 1.850 1.000      2.444  23.000
 1009 1.860 1.580  2.140 1.000 1.00000 1.850 1.000      2.457  23.000
 1010 1.860 1.580  2.140 1.000 1.00000 1.860 1.000      6.050  23.000
 1011 1.850 1.571  2.129 1.000 1.00000 1.850 1.000      2.386  23.000
 1012 1.860 1.580  2.140 1.000 1.00000 1.860 1.000      5.547  23.000
 1013 1.860 1.580  2.140 1.000 1.00000 1.850 1.000      2.294  23.000
 1014 1.860 1.580  2.140 1.000 1.00000 1.850 1.000      3.419  23.000
 1015 1.850 1.571  2.129 1.000 1.00000 1.850 1.000      2.300  23.000
 1016 1.850 1.571  2.129 1.000 1.00000 1.850 1.000      2.509  23.000
 1017 1.850 1.571  2.129 1.000 1.00000 1.850 1.000      2.408  23.000
 1018 1.870 1.589  2.151 1.000 1.00000 1.880 1.000      8.302  23.000
 1019 1.870 1.589  2.151 1.000 1.00000 1.880 1.000      7.085  23.000
 1020 1.850 1.571  2.129 1.000 1.00000 1.850 1.000      2.276  23.000
 1021 1.860 1.580  2.140 1.000 1.00000 1.850 1.000      3.419  23.000
 1022 1.850 1.571  2.129 1.000 1.00000 1.850 1.000      2.281  23.000
 1023 1.860 1.580  2.140 1.000 1.00000 1.850 1.000      4.740  23.000
 1024 1.860 1.580  2.140 1.000 1.00000 1.850 1.000      4.947  23.000
 1025 1.860 1.580  2.140 1.000 1.00000 1.860 1.000      5.838  23.000
 1026 1.860 1.580  2.140 1.000 1.00000 1.850 1.000      3.302  23.000
 1027 1.850 1.571  2.129 1.000 1.00000 1.850 1.000      2.291  23.000
 1028 1.860 1.580  2.140 1.000 1.00000 1.850 1.000      2.847  23.000
 1029 1.860 1.580  2.140 1.000 1.00000 1.850 1.000      2.721  23.000
 1030 1.860 1.580  2.140 1.000 1.00000 1.850 1.000      2.765  23.000
 1031 1.860 1.580  2.140 1.000 1.00000 1.850 1.000      2.835  23.000
 1032 1.860 1.580  2.140 1.000 1.00000 1.850 1.000      2.557  23.000
 1033 1.850 1.571  2.129 1.000 1.00000 1.850 1.000      2.356  23.000
 1034 1.860 1.580  2.140 1.000 1.00000 1.850 1.000      2.486  23.000
 1035 1.870 1.589  2.151 1.000 1.00000 1.880 1.000      8.196  23.000
 1036 1.860 1.580  2.140 1.000 1.00000 1.860 1.000      5.406  23.000
 1037 1.860 1.580  2.140 1.000 1.00000 1.850 1.000      4.059  23.000
 1038 1.860 1.580  2.140 1.000 1.00000 1.850 1.000      3.238  23.000
 1039 1.860 1.580  2.140 1.000 1.00000 1.850 1.000      2.313  23.000
 1040 1.860 1.580  2.140 1.000 1.00000 1.850 1.000      2.330  23.000
 1041 1.860 1.580  2.140 1.000 1.00000 1.850 1.000      2.288  23.000
 1042 1.860 1.580  2.140 1.000 1.00000 1.850 1.000      3.751  23.000
 1043 1.860 1.580  2.140 1.000 1.00000 1.850 1.000      2.457  23.000
 1044 1.860 1.580  2.140 1.000 1.00000 1.850 1.000      2.369  23.000
 1045 1.850 1.571  2.129 1.000 1.00000 1.850 1.000      2.291  23.000
 1046 1.880 1.598  2.162 1.000 1.00000 1.880 1.000     13.985  23.000
 1047 1.850 1.571  2.129 1.000 1.00000 1.850 1.000      2.386  23.000
 1048 1.850 1.571  2.129 1.000 1.00000 1.850 1.000      2.752  23.000
 1049 1.850 1.571  2.129 1.000 1.00000 1.850 1.000      2.370  23.000
 1050 1.880 1.598  2.162 1.000 1.00000 1.880 1.000     12.707  23.000
 1051 1.850 1.571  2.129 1.000 1.00000 1.850 1.000      2.300  23.000
 1052 1.860 1.580  2.140 1.000 1.00000 1.850 1.000      3.712  23.000
 1053 1.860 1.580  2.140 1.000 1.00000 1.860 1.000      6.657  23.000
 1054 1.860 1.580  2.140 1.000 1.00000 1.850 1.000      2.431  23.000
 1055 1.860 1.580  2.140 1.000 1.00000 1.850 1.000      2.288  23.000
 1056 1.860 1.580  2.140 1.000 1.00000 1.860 1.000      6.624  23.000
 1057 1.850 1.571  2.129 1.000 1.00000 1.850 1.000      2.557  23.000
 1058 1.860 1.580  2.140 1.000 1.00000 1.850 1.000      3.489  23.000
 1059 1.850 1.571  2.129 1.000 1.00000 1.850 1.000      2.509  23.000
 1060 1.860 1.580  2.140 1.000 1.00000 1.850 1.000      4.213  23.000
 1061 1.860 1.580  2.140 1.000 1.00000 1.850 1.000      2.330  23.000
 1062 1.860 1.580  2.140 1.000 1.00000 1.850 1.000      4.895  23.000
 1063 1.890 1.607  2.173 1.000 1.00000 1.890 1.000     23.681  23.000
 1064 1.890 1.607  2.173 1.000 1.00000 1.890 1.000     22.008  23.000
 1065 1.860 1.580  2.140 1.000 1.00000 1.850 1.000      4.445  23.000
 1066 1.850 1.571  2.129 1.000 1.00000 1.850 1.000      2.592  23.000
 1067 1.860 1.580  2.140 1.000 1.00000 1.850 1.000      4.169  23.000
 1068 1.860 1.580  2.140 1.000 1.00000 1.850 1.000      2.451  23.000
 1069 1.870 1.589  2.151 1.000 1.00000 1.880 1.000      8.625  23.000
 1070 1.860 1.580  2.140 1.000 1.00000 1.850 1.000      2.288  23.000
 1071 1.860 1.580  2.140 1.000 1.00000 1.850 1.000      2.280  23.000
 1072 1.880 1.598  2.162 1.000 1.00000 1.890 1.000     20.415  23.000
 1073 1.860 1.580  2.140 1.000 1.00000 1.850 1.000      4.103  23.000
 1074 1.860 1.580  2.140 1.000 1.00000 1.850 1.000      2.360  23.000
 1075 1.880 1.598  2.162 1.000 1.00000 1.880 1.000     12.560  23.000
 1076 1.860 1.580  2.140 1.000 1.00000 1.850 1.000      2.909  23.000
 1077 1.860 1.580  2.140 1.000 1.00000 1.850 1.000      2.444  23.000
 1078 1.870 1.589  2.151 1.000 1.00000 1.880 1.000      8.092  23.000
 1079 1.860 1.580  2.140 1.000 1.00000 1.850 1.000      2.639  23.000
 1080 1.860 1.580  2.140 1.000 1.00000 1.850 1.000      2.413  23.000
 1081 1.870 1.589  2.151 1.000 1.00000 1.880 1.000      7.955  23.000
 1082 1.850 1.571  2.129 1.000 1.00000 1.850 1.000      2.432  23.000
 1083 1.860 1.580  2.140 1.000 1.00000 1.850 1.000      2.532  23.000
 1084 1.850 1.571  2.129 1.000 1.00000 1.850 1.000      2.320  23.000
 1085 1.860 1.580  2.140 1.000 1.00000 1.850 1.000      2.532  23.000
 1086 1.870 1.589  2.151 1.000 1.00000 1.880 1.000      9.783  23.000
 1087 1.850 1.571  2.129 1.000 1.00000 1.850 1.000      2.275  23.000
 1088 1.890 1.607  2.173 1.000 1.00000 1.890 1.000     28.941  23.000
 1089 1.860 1.580  2.140 1.000 1.00000 1.850 1.000      2.659  23.000
 1090 1.860 1.580  2.140 1.000 1.00000 1.850 1.000      2.601  23.000
 1091 1.860 1.580  2.140 1.000 1.00000 1.860 1.000      5.808  23.000
 1092 1.850 1.571  2.129 1.000 1.00000 1.850 1.000      2.892  23.000
 1093 1.870 1.589  2.151 1.000 1.00000 1.880 1.000      8.885  23.000
 1094 1.850 1.571  2.129 1.000 1.00000 1.850 1.000      2.592  23.000
 1095 1.870 1.589  2.151 1.000 1.00000 1.880 1.000      9.783  23.000
 1096 1.850 1.571  2.129 1.000 1.00000 1.850 1.000      2.281  23.000
 1097 1.870 1.589  2.151 1.000 1.00000 1.880 1.000      8.516  23.000
 1098 1.860 1.580  2.140 1.000 1.00000 1.850 1.000      2.385  23.000
 1099 1.860 1.580  2.140 1.000 1.00000 1.850 1.000      4.541  23.000
 1100 1.850 1.571  2.129 1.000 1.00000 1.850 1.000      2.486  23.000
 1101 1.860 1.580  2.140 1.000 1.00000 1.860 1.000      5.296  23.000
 1102 1.860 1.580  2.140 1.000 1.00000 1.850 1.000      3.385  23.000
 1103 1.850 1.571  2.129 1.000 1.00000 1.850 1.000      2.289  23.000
 1104 1.860 1.580  2.140 1.000 1.00000 1.850 1.000      2.431  23.000
 1105 1.860 1.580  2.140 1.000 1.00000 1.850 1.000      2.425  23.000
 1106 1.850 1.571  2.129 1.000 1.00000 1.850 1.000      2.361  23.000
 1107 1.860 1.580  2.140 1.000 1.00000 1.850 1.000      2.395  23.000
 1108 1.870 1.589  2.151 1.000 1.00000 1.880 1.000      9.946  23.000
 1109 1.880 1.598  2.162 1.000 1.00000 1.880 1.000     13.464  23.000
 1110 1.860 1.580  2.140 1.000 1.00000 1.850 1.000      3.871  23.000
 1111 1.850 1.571  2.129 1.000 1.00000 1.850 1.000      2.324  23.000
 1112 1.860 1.580  2.140 1.000 1.00000 1.850 1.000      2.419  23.000
 1113 1.860 1.580  2.140 1.000 1.00000 1.850 1.000      3.830  23.000
 1114 1.850 1.571  2.129 1.000 1.00000 1.850 1.000      2.276  23.000
 1115 1.860 1.580  2.140 1.000 1.00000 1.850 1.000      2.294  23.000
 1116 1.880 1.598  2.162 1.000 1.00000 1.880 1.000     11.653  23.000
 1117 1.850 1.571  2.129 1.000 1.00000 1.850 1.000      2.282  23.000
 1118 1.850 1.571  2.129 1.000 1.00000 1.850 1.000      2.380  23.000
 1119 1.890 1.607  2.173 1.000 1.00000 1.890 1.000     29.103  23.000
 1120 1.860 1.580  2.140 1.000 1.00000 1.850 1.000      2.327  23.000
 1121 1.860 1.580  2.140 1.000 1.00000 1.850 1.000      3.507  23.000
 1122 1.860 1.580  2.140 1.000 1.00000 1.850 1.000      2.346  23.000
 1123 1.860 1.580  2.140 1.000 1.00000 1.850 1.000      2.776  23.000
 1124 1.870 1.589  2.151 1.000 1.00000 1.880 1.000      8.092  23.000
 1125 1.850 1.571  2.129 1.000 1.00000 1.850 1.000      2.386  23.000
 1126 1.860 1.580  2.140 1.000 1.00000 1.850 1.000      2.501  23.000
 1127 1.850 1.571  2.129 1.000 1.00000 1.850 1.000      2.278  23.000
 1128 1.860 1.580  2.140 1.000 1.00000 1.850 1.000      2.282  23.000
 1129 1.870 1.589  2.151 1.000 1.00000 1.880 1.000      7.025  23.000
 1130 1.860 1.580  2.140 1.000 1.00000 1.850 1.000      2.360  23.000
 1131 1.860 1.580  2.140 1.000 1.00000 1.850 1.000      4.445  23.000
 1132 1.860 1.580  2.140 1.000 1.00000 1.850 1.000      2.689  23.000
 1133 1.860 1.580  2.140 1.000 1.00000 1.850 1.000      4.639  23.000
 1134 1.880 1.598  2.162 1.000 1.00000 1.880 1.000     10.535  23.000
 1135 1.880 1.598  2.162 1.000 1.00000 1.880 1.000     15.014  23.000
 1136 1.850 1.571  2.129 1.000 1.00000 1.850 1.000      2.302  23.000
 1137 1.850 1.571  2.129 1.000 1.00000 1.850 1.000      2.629  23.000
 1138 1.860 1.580  2.140 1.000 1.00000 1.850 1.000      3.058  23.000
 1139 1.880 1.598  2.162 1.000 1.00000 1.890 1.000     19.902  23.000
 1140 1.860 1.580  2.140 1.000 1.00000 1.850 1.000      4.817  23.000
 1141 1.870 1.589  2.151 1.000 1.00000 1.880 1.000      7.557  23.000
 1142 1.860 1.580  2.140 1.000 1.00000 1.850 1.000      3.270  23.000
 1143 1.850 1.571  2.129 1.000 1.00000 1.850 1.000      2.314  23.000
 1144 1.860 1.580  2.140 1.000 1.00000 1.850 1.000      2.379  23.000
 1145 1.850 1.571  2.129 1.000 1.00000 1.850 1.000      2.278  23.000
 1146 1.850 1.571  2.129 1.000 1.00000 1.850 1.000      2.276  23.000
 1147 1.850 1.571  2.129 1.000 1.00000 1.850 1.000      2.408  23.000
 1148 1.870 1.589  2.151 1.000 1.00000 1.880 1.000      8.127  23.000
 1149 1.860 1.580  2.140 1.000 1.00000 1.860 1.000      6.236  23.000
 1150 1.880 1.598  2.162 1.000 1.00000 1.880 1.000     15.237  23.000
 1151 1.860 1.580  2.140 1.000 1.00000 1.850 1.000      3.790  23.000
 1152 1.850 1.571  2.129 1.000 1.00000 1.850 1.000      2.275  23.000
 1153 1.860 1.580  2.140 1.000 1.00000 1.850 1.000      2.835  23.000
 1154 1.850 1.571  2.129 1.000 1.00000 1.850 1.000      2.284  23.000
 1155 1.860 1.580  2.140 1.000 1.00000 1.850 1.000      2.419  23.000
 1156 1.860 1.580  2.140 1.000 1.00000 1.850 1.000      4.817  23.000
 1157 1.860 1.580  2.140 1.000 1.00000 1.850 1.000      3.770  23.000
 1158 1.860 1.580  2.140 1.000 1.00000 1.850 1.000      2.710  23.000
 1159 1.860 1.580  2.140 1.000 1.00000 1.850 1.000      2.471  23.000
 1160 1.860 1.580  2.140 1.000 1.00000 1.850 1.000      2.282  23.000
 1161 1.880 1.598  2.162 1.000 1.00000 1.880 1.000     14.848  23.000
 1162 1.860 1.580  2.140 1.000 1.00000 1.850 1.000      4.147  23.000
 1163 1.870 1.589  2.151 1.000 1.00000 1.860 1.000      6.859  23.000
 1164 1.860 1.580  2.140 1.000 1.00000 1.850 1.000      3.130  23.000
 1165 1.850 1.571  2.129 1.000 1.00000 1.850 1.000      2.396  23.000
 1166 1.850 1.571  2.129 1.000 1.00000 1.850 1.000      2.280  23.000
 1167 1.850 1.571  2.129 1.000 1.00000 1.850 1.000      2.276  23.000
 1168 1.860 1.580  2.140 1.000 1.00000 1.850 1.000      4.765  23.000
 1169 1.870 1.589  2.151 1.000 1.00000 1.860 1.000      6.927  23.000
 1170 1.860 1.580  2.140 1.000 1.00000 1.850 1.000      2.486  23.000
 1171 1.860 1.580  2.140 1.000 1.00000 1.850 1.000      4.842  23.000
 1172 1.860 1.580  2.140 1.000 1.00000 1.850 1.000      4.236  23.000
 1173 1.850 1.571  2.129 1.000 1.00000 1.850 1.000      2.432  23.000
 1174 1.870 1.589  2.151 1.000 1.00000 1.860 1.000      6.961  23.000
 1175 1.860 1.580  2.140 1.000 1.00000 1.850 1.000      2.689  23.000
 1176 1.860 1.580  2.140 1.000 1.00000 1.860 1.000      5.135  23.000
 1177 1.850 1.571  2.129 1.000 1.00000 1.850 1.000      2.472  23.000
 1178 1.870 1.589  2.151 1.000 1.00000 1.880 1.000      7.428  23.000
 1179 1.860 1.580  2.140 1.000 1.00000 1.850 1.000      2.871  23.000
 1180 1.860 1.580  2.140 1.000 1.00000 1.850 1.000      3.437  23.000
 1181 1.860 1.580  2.140 1.000 1.00000 1.850 1.000      2.310  23.000
 1182 1.850 1.571  2.129 1.000 1.00000 1.850 1.000      2.517  23.000
 1183 1.880 1.598  2.162 1.000 1.00000 1.880 1.000     10.928  23.000
 1184 1.850 1.571  2.129 1.000 1.00000 1.850 1.000      2.356  23.000
 1185 1.850 1.571  2.129 1.000 1.00000 1.850 1.000      2.281  23.000
 1186 1.860 1.580  2.140 1.000 1.00000 1.850 1.000      4.281  23.000
 1187 1.860 1.580  2.140 1.000 1.00000 1.850 1.000      2.290  23.000
 1188 1.860 1.580  2.140 1.000 1.00000 1.860 1.000      6.624  23.000
 1189 1.860 1.580  2.140 1.000 1.00000 1.850 1.000      2.689  23.000
 1190 1.860 1.580  2.140 1.000 1.00000 1.850 1.000      2.374  23.000
 1191 1.880 1.598  2.162 1.000 1.00000 1.880 1.000     14.629  23.000
 1192 1.860 1.580  2.140 1.000 1.00000 1.850 1.000      4.740  23.000
 1193 1.860 1.580  2.140 1.000 1.00000 1.860 1.000      6.558  23.000
 1194 1.850 1.571  2.129 1.000 1.00000 1.850 1.000      2.533  23.000
 1195 1.860 1.580  2.140 1.000 1.00000 1.850 1.000      2.316  23.000
 1196 1.870 1.589  2.151 1.000 1.00000 1.880 1.000      9.423  23.000
 1197 1.860 1.580  2.140 1.000 1.00000 1.850 1.000      3.101  23.000
 1198 1.850 1.571  2.129 1.000 1.00000 1.850 1.000      2.465  23.000
 1199 1.860 1.580  2.140 1.000 1.00000 1.850 1.000      4.125  23.000
 1200 1.880 1.598  2.162 1.000 1.00000 1.890 1.000     19.649  23.000
 1201 1.860 1.580  2.140 1.000 1.00000 1.850 1.000      3.636  23.000
 1202 1.860 1.580  2.140 1.000 1.00000 1.850 1.000      2.540  23.000
 1203 1.860 1.580  2.140 1.000 1.00000 1.850 1.000      4.740  23.000
 1204 1.850 1.571  2.129 1.000 1.00000 1.850 1.000      2.356  23.000
 1205 1.860 1.580  2.140 1.000 1.00000 1.850 1.000      2.374  23.000
 1206 1.880 1.598  2.162 1.000 1.00000 1.880 1.000     13.933  23.000
 1207 1.850 1.571  2.129 1.000 1.00000 1.850 1.000      2.280  23.000
 1208 1.870 1.589  2.151 1.000 1.00000 1.880 1.000      9.581  23.000
 1209 1.860 1.580  2.140 1.000 1.00000 1.860 1.000      5.215  23.000
 1210 1.880 1.598  2.162 1.000 1.00000 1.880 1.000     11.700  23.000
 1211 1.860 1.580  2.140 1.000 1.00000 1.850 1.000      3.673  23.000
 1212 1.850 1.571  2.129 1.000 1.00000 1.850 1.000      2.648  23.000
 1213 1.850 1.571  2.129 1.000 1.00000 1.850 1.000      2.566  23.000
 1214 1.860 1.580  2.140 1.000 1.00000 1.850 1.000      3.561  23.000
 1215 1.890 1.607  2.173 1.000 1.00000 1.890 1.000     33.795  23.000
 1216 1.860 1.580  2.140 1.000 1.00000 1.850 1.000      2.307  23.000
 1217 1.890 1.607  2.173 1.000 1.00000 1.890 1.000     23.538  23.000
 1218 1.860 1.580  2.140 1.000 1.00000 1.850 1.000      3.580  23.000
 1219 1.860 1.580  2.140 1.000 1.00000 1.850 1.000      5.000  23.000
 1220 1.860 1.580  2.140 1.000 1.00000 1.850 1.000      2.669  23.000
 1221 1.860 1.580  2.140 1.000 1.00000 1.850 1.000      2.351  23.000
 1222 1.850 1.571  2.129 1.000 1.00000 1.850 1.000      2.730  23.000
 1223 1.880 1.598  2.162 1.000 1.00000 1.880 1.000     16.858  23.000
 1224 1.850 1.571  2.129 1.000 1.00000 1.850 1.000      2.678  23.000
 1225 1.860 1.580  2.140 1.000 1.00000 1.850 1.000      2.297  23.000
 1226 1.860 1.580  2.140 1.000 1.00000 1.850 1.000      3.636  23.000
 1227 1.860 1.580  2.140 1.000 1.00000 1.850 1.000      2.330  23.000
 1228 1.860 1.580  2.140 1.000 1.00000 1.850 1.000      2.288  23.000
 1229 1.860 1.580  2.140 1.000 1.00000 1.860 1.000      6.525  23.000
 1230 1.850 1.571  2.129 1.000 1.00000 1.850 1.000      2.501  23.000
 1231 1.860 1.580  2.140 1.000 1.00000 1.850 1.000      2.425  23.000
 1232 1.850 1.571  2.129 1.000 1.00000 1.850 1.000      2.486  23.000
 1233 1.860 1.580  2.140 1.000 1.00000 1.850 1.000      2.302  23.000
 1234 1.880 1.598  2.162 1.000 1.00000 1.880 1.000     13.412  23.000
 1235 1.850 1.571  2.129 1.000 1.00000 1.850 1.000      2.458  23.000
 1236 1.860 1.580  2.140 1.000 1.00000 1.850 1.000      2.532  23.000
 1237 1.850 1.571  2.129 1.000 1.00000 1.850 1.000      2.356  23.000
 1238 1.850 1.571  2.129 1.000 1.00000 1.850 1.000      2.305  23.000
 1239 1.860 1.580  2.140 1.000 1.00000 1.850 1.000      2.369  23.000
 1240 1.890 1.607  2.173 1.000 1.00000 1.890 1.000     23.609  23.000
 1241 1.850 1.571  2.129 1.000 1.00000 1.850 1.000      2.820  23.000
 1242 1.870 1.589  2.151 1.000 1.00000 1.880 1.000      7.492  23.000
 1243 1.860 1.580  2.140 1.000 1.00000 1.850 1.000      2.549  23.000
 1244 1.860 1.580  2.140 1.000 1.00000 1.860 1.000      5.988  23.000
 1245 1.860 1.580  2.140 1.000 1.00000 1.850 1.000      2.659  23.000
 1246 1.860 1.580  2.140 1.000 1.00000 1.860 1.000      6.558  23.000
 1247 1.870 1.589  2.151 1.000 1.00000 1.880 1.000      8.196  23.000
 1248 1.860 1.580  2.140 1.000 1.00000 1.850 1.000      4.351  23.000
 1249 1.850 1.571  2.129 1.000 1.00000 1.850 1.000      2.391  23.000
 1250 1.850 1.571  2.129 1.000 1.00000 1.850 1.000      2.291  23.000
 1251 1.860 1.580  2.140 1.000 1.00000 1.850 1.000      4.213  23.000
 1252 1.880 1.598  2.162 1.000 1.00000 1.880 1.000     15.069  23.000
 1253 1.850 1.571  2.129 1.000 1.00000 1.850 1.000      2.557  23.000
 1254 1.860 1.580  2.140 1.000 1.00000 1.850 1.000      2.549  23.000
 1255 1.860 1.580  2.140 1.000 1.00000 1.850 1.000      2.431  23.000
 1256 1.880 1.598  2.162 1.000 1.00000 1.880 1.000     12.511  23.000
 1257 1.860 1.580  2.140 1.000 1.00000 1.850 1.000      2.281  23.000
 1258 1.860 1.580  2.140 1.000 1.00000 1.850 1.000      3.693  23.000
 1259 1.870 1.589  2.151 1.000 1.00000 1.880 1.000      8.960  23.000
 1260 1.860 1.580  2.140 1.000 1.00000 1.850 1.000      4.213  23.000
 1261 1.860 1.580  2.140 1.000 1.00000 1.850 1.000      3.270  23.000
 1262 1.860 1.580  2.140 1.000 1.00000 1.850 1.000      2.374  23.000
 1263 1.860 1.580  2.140 1.000 1.00000 1.850 1.000      4.517  23.000
 1264 1.850 1.571  2.129 1.000 1.00000 1.850 1.000      2.575  23.000
 1265 1.880 1.598  2.162 1.000 1.00000 1.890 1.000     20.610  23.000
 1266 1.860 1.580  2.140 1.000 1.00000 1.850 1.000      2.299  23.000
 1267 1.850 1.571  2.129 1.000 1.00000 1.850 1.000      2.291  23.000
 1268 1.860 1.580  2.140 1.000 1.00000 1.850 1.000      2.557  23.000
 1269 1.860 1.580  2.140 1.000 1.00000 1.850 1.000      3.472  23.000
 1270 1.850 1.571  2.129 1.000 1.00000 1.850 1.000      2.281  23.000
 1271 1.850 1.571  2.129 1.000 1.00000 1.850 1.000      2.347  23.000
 1272 1.860 1.580  2.140 1.000 1.00000 1.850 1.000      2.277  23.000
 1273 1.860 1.580  2.140 1.000 1.00000 1.850 1.000      2.566  23.000
 1274 1.860 1.580  2.140 1.000 1.00000 1.850 1.000      4.565  23.000
 1275 1.870 1.589  2.151 1.000 1.00000 1.880 1.000      7.955  23.000
 1276 1.850 1.571  2.129 1.000 1.00000 1.850 1.000      2.426  23.000
 1277 1.860 1.580  2.140 1.000 1.00000 1.850 1.000      2.649  23.000
 1278 1.880 1.598  2.162 1.000 1.00000 1.880 1.000     10.665  23.000
 1279 1.860 1.580  2.140 1.000 1.00000 1.860 1.000      6.299  23.000
 1280 1.860 1.580  2.140 1.000 1.00000 1.850 1.000      3.058  23.000
 1281 1.860 1.580  2.140 1.000 1.00000 1.850 1.000      2.948  23.000
 1282 1.870 1.589  2.151 1.000 1.00000 1.880 1.000      7.460  23.000
 1283 1.860 1.580  2.140 1.000 1.00000 1.850 1.000      2.294  23.000
 1284 1.870 1.589  2.151 1.000 1.00000 1.880 1.000      7.524  23.000
 1285 1.860 1.580  2.140 1.000 1.00000 1.850 1.000      2.575  23.000
 1286 1.860 1.580  2.140 1.000 1.00000 1.850 1.000      2.871  23.000
 1287 1.850 1.571  2.129 1.000 1.00000 1.850 1.000      2.414  23.000
 1288 1.850 1.571  2.129 1.000 1.00000 1.850 1.000      2.678  23.000
 1289 1.860 1.580  2.140 1.000 1.00000 1.850 1.000      2.279  23.000
 1290 1.850 1.571  2.129 1.000 1.00000 1.850 1.000      3.023  23.000
 1291 1.880 1.598  2.162 1.000 1.00000 1.880 1.000     11.840  23.000
 1292 1.880 1.598  2.162 1.000 1.00000 1.880 1.000     12.511  23.000
 1293 1.850 1.571  2.129 1.000 1.00000 1.850 1.000      2.420  23.000
 1294 1.860 1.580  2.140 1.000 1.00000 1.850 1.000      2.282  23.000
 1295 1.860 1.580  2.140 1.000 1.00000 1.860 1.000      6.428  23.000
 1296 1.860 1.580  2.140 1.000 1.00000 1.850 1.000      3.254  23.000
 1297 1.850 1.571  2.129 1.000 1.00000 1.850 1.000      2.279  23.000
 1298 1.850 1.571  2.129 1.000 1.00000 1.850 1.000      2.314  23.000
 1299 1.860 1.580  2.140 1.000 1.00000 1.850 1.000      3.790  23.000
 1300 1.850 1.571  2.129 1.000 1.00000 1.850 1.000      2.402  23.000
 1301 1.850 1.571  2.129 1.000 1.00000 1.850 1.000      2.517  23.000
 1302 1.850 1.571  2.129 1.000 1.00000 1.850 1.000      2.797  23.000
 1303 1.850 1.571  2.129 1.000 1.00000 1.850 1.000      2.300  23.000
 1304 1.860 1.580  2.140 1.000 1.00000 1.850 1.000      3.254  23.000
 1305 1.880 1.598  2.162 1.000 1.00000 1.880 1.000     16.267  23.000
 1306 1.860 1.580  2.140 1.000 1.00000 1.860 1.000      5.135  23.000
 1307 1.870 1.589  2.151 1.000 1.00000 1.880 1.000      9.864  23.000
 1308 1.860 1.580  2.140 1.000 1.00000 1.860 1.000      6.624  23.000
 1309 1.850 1.571  2.129 1.000 1.00000 1.850 1.000      2.295  23.000
 1310 1.860 1.580  2.140 1.000 1.00000 1.850 1.000      2.302  23.000
 1311 1.850 1.571  2.129 1.000 1.00000 1.850 1.000      2.402  23.000
 1312 1.850 1.571  2.129 1.000 1.00000 1.850 1.000      2.287  23.000
 1313 1.860 1.580  2.140 1.000 1.00000 1.850 1.000      2.283  23.000
 1314 1.860 1.580  2.140 1.000 1.00000 1.860 1.000      5.351  23.000
 1315 1.850 1.571  2.129 1.000 1.00000 1.850 1.000      2.276  23.000
 1316 1.860 1.580  2.140 1.000 1.00000 1.850 1.000      2.464  23.000
 1317 1.850 1.571  2.129 1.000 1.00000 1.850 1.000      2.278  23.000
 1318 1.870 1.589  2.151 1.000 1.00000 1.860 1.000      6.757  23.000
 1319 1.860 1.580  2.140 1.000 1.00000 1.860 1.000      5.547  23.000
 1320 1.870 1.589  2.151 1.000 1.00000 1.880 1.000      7.989  23.000
 1321 1.860 1.580  2.140 1.000 1.00000 1.850 1.000      4.236  23.000
 1322 1.870 1.589  2.151 1.000 1.00000 1.880 1.000      9.581  23.000
 1323 1.860 1.580  2.140 1.000 1.00000 1.850 1.000      3.206  23.000
 1324 1.850 1.571  2.129 1.000 1.00000 1.850 1.000      2.370  23.000
 1325 1.860 1.580  2.140 1.000 1.00000 1.850 1.000      3.770  23.000
 1326 1.870 1.589  2.151 1.000 1.00000 1.880 1.000      7.989  23.000
 1327 1.880 1.598  2.162 1.000 1.00000 1.880 1.000     10.840  23.000
 1328 1.860 1.580  2.140 1.000 1.00000 1.850 1.000      4.639  23.000
 1329 1.860 1.580  2.140 1.000 1.00000 1.850 1.000      3.712  23.000
 1330 1.850 1.571  2.129 1.000 1.00000 1.850 1.000      2.451  23.000
 1331 1.850 1.571  2.129 1.000 1.00000 1.850 1.000      2.282  23.000
 1332 1.860 1.580  2.140 1.000 1.00000 1.860 1.000      6.173  23.000
 1333 1.860 1.580  2.140 1.000 1.00000 1.850 1.000      2.935  23.000
 1334 1.860 1.580  2.140 1.000 1.00000 1.850 1.000      2.334  23.000
 1335 1.850 1.571  2.129 1.000 1.00000 1.850 1.000      2.324  23.000
 1336 1.850 1.571  2.129 1.000 1.00000 1.850 1.000      2.361  23.000
 1337 1.850 1.571  2.129 1.000 1.00000 1.850 1.000      2.648  23.000
 1338 1.860 1.580  2.140 1.000 1.00000 1.850 1.000      2.575  23.000
 1339 1.860 1.580  2.140 1.000 1.00000 1.850 1.000      2.395  23.000
 1340 1.850 1.571  2.129 1.000 1.00000 1.850 1.000      2.311  23.000
 1341 1.860 1.580  2.140 1.000 1.00000 1.850 1.000      2.479  23.000
 1342 1.850 1.571  2.129 1.000 1.00000 1.850 1.000      2.533  23.000
 1343 1.870 1.589  2.151 1.000 1.00000 1.880 1.000      8.736  23.000
 1344 1.860 1.580  2.140 1.000 1.00000 1.860 1.000      5.988  23.000
 1345 1.860 1.580  2.140 1.000 1.00000 1.860 1.000      6.111  23.000
 1346 1.850 1.571  2.129 1.000 1.00000 1.850 1.000      2.278  23.000
 1347 1.850 1.571  2.129 1.000 1.00000 1.850 1.000      2.317  23.000
 1348 1.860 1.580  2.140 1.000 1.00000 1.850 1.000      2.532  23.000
 1349 1.860 1.580  2.140 1.000 1.00000 1.860 1.000      5.898  23.000
 1350 1.850 1.571  2.129 1.000 1.00000 1.850 1.000      2.356  23.000
 1351 1.860 1.580  2.140 1.000 1.00000 1.850 1.000      2.549  23.000
 1352 1.860 1.580  2.140 1.000 1.00000 1.850 1.000      2.669  23.000
 1353 1.850 1.571  2.129 1.000 1.00000 1.850 1.000      2.541  23.000
 1354 1.850 1.571  2.129 1.000 1.00000 1.850 1.000      2.472  23.000
 1355 1.850 1.571  2.129 1.000 1.00000 1.850 1.000      2.414  23.000
 1356 1.850 1.571  2.129 1.000 1.00000 1.850 1.000      2.763  23.000
 1357 1.850 1.571  2.129 1.000 1.00000 1.850 1.000      2.289  23.000
 1358 1.870 1.589  2.151 1.000 1.00000 1.880 1.000      8.516  23.000
 1359 1.860 1.580  2.140 1.000 1.00000 1.850 1.000      2.583  23.000
 1360 1.860 1.580  2.140 1.000 1.00000 1.850 1.000      2.835  23.000
 1361 1.850 1.571  2.129 1.000 1.00000 1.850 1.000      2.279  23.000
 1362 1.850 1.571  2.129 1.000 1.00000 1.850 1.000      2.465  23.000
 1363 1.850 1.571  2.129 1.000 1.00000 1.850 1.000      2.320  23.000
 1364 1.860 1.580  2.140 1.000 1.00000 1.860 1.000      5.547  23.000
 1365 1.860 1.580  2.140 1.000 1.00000 1.850 1.000      2.316  23.000
 1366 1.850 1.571  2.129 1.000 1.00000 1.850 1.000      2.892  23.000
 1367 1.850 1.571  2.129 1.000 1.00000 1.850 1.000      2.601  23.000
 1368 1.860 1.580  2.140 1.000 1.00000 1.850 1.000      3.058  23.000
 1369 1.860 1.580  2.140 1.000 1.00000 1.850 1.000      2.909  23.000
 1370 1.860 1.580  2.140 1.000 1.00000 1.850 1.000      2.659  23.000
 1371 1.850 1.571  2.129 1.000 1.00000 1.850 1.000      2.335  23.000
 1372 1.860 1.580  2.140 1.000 1.00000 1.850 1.000      2.549  23.000
 1373 1.860 1.580  2.140 1.000 1.00000 1.850 1.000      3.015  23.000
 1374 1.860 1.580  2.140 1.000 1.00000 1.850 1.000      2.583  23.000
 1375 1.850 1.571  2.129 1.000 1.00000 1.850 1.000      2.501  23.000
 1376 1.850 1.571  2.129 1.000 1.00000 1.850 1.000      2.445  23.000
 1377 1.850 1.571  2.129 1.000 1.00000 1.850 1.000      2.300  23.000
 1378 1.870 1.589  2.151 1.000 1.00000 1.880 1.000      7.085  23.000
 1379 1.860 1.580  2.140 1.000 1.00000 1.850 1.000      3.617  23.000
 1380 1.860 1.580  2.140 1.000 1.00000 1.850 1.000      3.912  23.000
 1381 1.860 1.580  2.140 1.000 1.00000 1.850 1.000      2.338  23.000
 1382 1.860 1.580  2.140 1.000 1.00000 1.850 1.000      2.310  23.000
 1383 1.850 1.571  2.129 1.000 1.00000 1.850 1.000      2.280  23.000
 1384 1.860 1.580  2.140 1.000 1.00000 1.850 1.000      2.310  23.000
 1385 1.870 1.589  2.151 1.000 1.00000 1.880 1.000      8.058  23.000
 1386 1.860 1.580  2.140 1.000 1.00000 1.850 1.000      3.072  23.000
 1387 1.860 1.580  2.140 1.000 1.00000 1.850 1.000      2.297  23.000
 1388 1.860 1.580  2.140 1.000 1.00000 1.860 1.000      5.898  23.000
 1389 1.850 1.571  2.129 1.000 1.00000 1.850 1.000      2.275  23.000
 1390 1.860 1.580  2.140 1.000 1.00000 1.860 1.000      5.868  23.000
 1391 1.860 1.580  2.140 1.000 1.00000 1.850 1.000      4.639  23.000
 1392 1.860 1.580  2.140 1.000 1.00000 1.850 1.000      2.689  23.000
 1393 1.890 1.607  2.173 1.000 1.00000 1.890 1.000     25.734  23.000
 1394 1.860 1.580  2.140 1.000 1.00000 1.850 1.000      4.517  23.000
 1395 1.860 1.580  2.140 1.000 1.00000 1.860 1.000      6.236  23.000
 1396 1.880 1.598  2.162 1.000 1.00000 1.880 1.000     12.413  23.000
 1397 1.860 1.580  2.140 1.000 1.00000 1.850 1.000      4.974  23.000
 1398 1.850 1.571  2.129 1.000 1.00000 1.850 1.000      2.880  23.000
 1399 1.860 1.580  2.140 1.000 1.00000 1.850 1.000      2.401  23.000
 1400 1.870 1.589  2.151 1.000 1.00000 1.880 1.000      7.820  23.000
