## File LOS/SB2_B2004a_2.2z_Mags_1100.bpz  Sat Aug 13 01:31:25 2016
##
##Parameters used to run BPZ:
##
##AB_DIR=/home/lidenscheng/bpz-1.99.3//AB/
##ADD_CONTINUOUS_PROB=None
##ADD_SPEC_PROB=None
##CHECK=LOS/SB2_B2004a_2.2z_Mags_1100.flux_comparison
##COLOR=no
##COLUMNS=losNoErrors.columns
##CONVOLVE_P=yes
##DELTA_M_0=0.0
##DZ=0.01
##EXCLUDE=none
##FC=None
##FILTER_DIR=/home/lidenscheng/MK_DirectSim/filters/
##GET_Z=yes
##INPUT=LOS/SB2_B2004a_2.2z_Mags_1100.txt
##INTERACTIVE=yes
##INTERP=0
##MADAU=no
##MAG=yes
##MEAN_IGM=yes
##MERGE_PEAKS=no
##MIN_MAGERR=0.001
##MIN_RMS=0.05
##NEW_AB=no
##NMAX=None
##NTYPES=None
##N_PEAKS=1
##ODDS=0.95
##ONLY_TYPE=no
##OUTPUT=LOS/SB2_B2004a_2.2z_Mags_1100.bpz
##PHOTO_ERRORS=no
##PLOTS=no
##PRIOR=none
##PROBS=no
##PROBS2=no
##PROBS_LITE=LOS/SB2_B2004a_2.2z_Mags_1100.probs
##P_MIN=0.01
##SED_DIR=/home/lidenscheng/MK_DirectSim/SEDs/
##SPECTRA=SB2.list
##VERBOSE=yes
##ZC=None
##ZMAX=10.0
##ZMIN=0.01
##ZP_OFFSETS=0.0
##Z_THR=0
##
##Column information
##
# 1 ID
# 2 Z_B
# 3 Z_B_MIN
# 4 Z_B_MAX
# 5 T_B
# 6 ODDS    
# 7 Z_ML
# 8 T_ML
# 9 CHI-SQUARED
# 10 M_0
##
    1 2.260 1.941  2.579 1.000 1.00000 2.260 1.000      1.513  23.000
    2 2.250 1.932  2.568 1.000 1.00000 2.260 1.000      1.925  23.000
    3 2.260 1.941  2.579 1.000 1.00000 2.260 1.000      1.398  23.000
    4 2.240 1.922  2.558 1.000 1.00000 2.240 1.000      1.310  23.000
    5 2.230 1.913  2.547 1.000 1.00000 2.240 1.000      2.388  23.000
    6 2.240 1.922  2.558 1.000 1.00000 2.240 1.000      1.228  23.000
    7 2.340 2.013  2.667 1.000 1.00000 2.340 1.000     23.397  23.000
    8 2.290 1.968  2.612 1.000 1.00000 2.290 1.000      6.608  23.000
    9 2.300 1.977  2.623 1.000 1.00000 2.300 1.000      9.635  23.000
   10 2.330 2.004  2.656 1.000 1.00000 2.340 1.000     21.965  23.000
   11 2.240 1.922  2.558 1.000 1.00000 2.250 1.000      0.914  23.000
   12 2.320 1.995  2.645 1.000 1.00000 2.320 1.000     19.504  23.000
   13 2.240 1.922  2.558 1.000 1.00000 2.240 1.000      1.200  23.000
   14 2.280 1.959  2.601 1.000 1.00000 2.290 1.000      5.274  23.000
   15 2.440 2.103  2.777 1.000 1.00000 2.440 1.000     42.980  23.000
   16 2.270 1.950  2.590 1.000 1.00000 2.260 1.000      2.533  23.000
   17 2.250 1.932  2.568 1.000 1.00000 2.250 1.000      0.607  23.000
   18 2.250 1.932  2.568 1.000 1.00000 2.250 1.000      0.788  23.000
   19 2.260 1.941  2.579 1.000 1.00000 2.260 1.000      1.441  23.000
   20 2.260 1.941  2.579 1.000 1.00000 2.260 1.000      1.273  23.000
   21 2.240 1.922  2.558 1.000 1.00000 2.240 1.000      1.844  23.000
   22 2.250 1.932  2.568 1.000 1.00000 2.250 1.000      0.616  23.000
   23 2.250 1.932  2.568 1.000 1.00000 2.250 1.000      0.647  23.000
   24 2.290 1.968  2.612 1.000 1.00000 2.290 1.000      7.580  23.000
   25 2.210 1.895  2.525 1.000 1.00000 2.200 1.000      7.330  23.000
   26 2.250 1.932  2.568 1.000 1.00000 2.250 1.000      0.583  23.000
   27 2.220 1.904  2.536 1.000 1.00000 2.220 1.000      5.046  23.000
   28 2.300 1.977  2.623 1.000 1.00000 2.300 1.000     11.684  23.000
   29 2.300 1.977  2.623 1.000 1.00000 2.300 1.000     11.821  23.000
   30 2.240 1.922  2.558 1.000 1.00000 2.240 1.000      1.630  23.000
   31 2.240 1.922  2.558 1.000 1.00000 2.240 1.000      1.078  23.000
   32 2.240 1.922  2.558 1.000 1.00000 2.250 1.000      0.950  23.000
   33 2.250 1.932  2.568 1.000 1.00000 2.250 1.000      1.173  23.000
   34 2.290 1.968  2.612 1.000 1.00000 2.290 1.000      5.695  23.000
   35 2.190 1.877  2.503 1.000 1.00000 2.190 1.000     10.472  23.000
   36 2.200 1.886  2.514 1.000 1.00000 2.200 1.000      8.168  23.000
   37 2.200 1.886  2.514 1.000 1.00000 2.200 1.000      8.073  23.000
   38 2.250 1.932  2.568 1.000 1.00000 2.250 1.000      0.947  23.000
   39 2.290 1.968  2.612 1.000 1.00000 2.290 1.000      6.212  23.000
   40 2.260 1.941  2.579 1.000 1.00000 2.260 1.000      1.785  23.000
   41 2.270 1.950  2.590 1.000 1.00000 2.260 1.000      3.017  23.000
   42 2.200 1.886  2.514 1.000 1.00000 2.200 1.000      7.485  23.000
   43 2.250 1.932  2.568 1.000 1.00000 2.250 1.000      0.934  23.000
   44 2.490 2.148  2.832 1.000 1.00000 2.490 1.000     55.572  23.000
   45 2.300 1.977  2.623 1.000 1.00000 2.300 1.000      9.212  23.000
   46 2.260 1.941  2.579 1.000 1.00000 2.260 1.000      1.811  23.000
   47 2.260 1.941  2.579 1.000 1.00000 2.260 1.000      1.372  23.000
   48 2.290 1.968  2.612 1.000 1.00000 2.290 1.000      5.387  23.000
   49 2.240 1.922  2.558 1.000 1.00000 2.240 1.000      1.098  23.000
   50 2.240 1.922  2.558 1.000 1.00000 2.240 1.000      1.940  23.000
   51 2.260 1.941  2.579 1.000 1.00000 2.260 1.000      1.632  23.000
   52 2.260 1.941  2.579 1.000 1.00000 2.260 1.000      1.653  23.000
   53 2.230 1.913  2.547 1.000 1.00000 2.240 1.000      3.050  23.000
   54 2.240 1.922  2.558 1.000 1.00000 2.240 1.000      1.148  23.000
   55 2.170 1.859  2.481 1.000 1.00000 2.150 1.000     11.418  23.000
   56 2.350 2.022  2.678 1.000 1.00000 2.350 1.000     25.868  23.000
   57 2.270 1.950  2.590 1.000 1.00000 2.260 1.000      2.903  23.000
   58 2.260 1.941  2.579 1.000 1.00000 2.260 1.000      1.737  23.000
   59 2.260 1.941  2.579 1.000 1.00000 2.260 1.000      1.277  23.000
   60 2.240 1.922  2.558 1.000 1.00000 2.250 1.000      0.746  23.000
   61 2.270 1.950  2.590 1.000 1.00000 2.260 1.000      2.531  23.000
   62 2.280 1.959  2.601 1.000 1.00000 2.280 1.000      4.090  23.000
   63 2.320 1.995  2.645 1.000 1.00000 2.310 1.000     17.990  23.000
   64 2.250 1.932  2.568 1.000 1.00000 2.250 1.000      0.652  23.000
   65 2.490 2.148  2.832 1.000 1.00000 2.490 1.000     56.533  23.000
   66 2.240 1.922  2.558 1.000 1.00000 2.240 1.000      1.165  23.000
   67 2.240 1.922  2.558 1.000 1.00000 2.250 1.000      0.899  23.000
   68 2.260 1.941  2.579 1.000 1.00000 2.260 1.000      1.439  23.000
   69 2.260 1.941  2.579 1.000 1.00000 2.260 1.000      1.803  23.000
   70 2.220 1.904  2.536 1.000 1.00000 2.220 1.000      5.527  23.000
   71 2.300 1.977  2.623 1.000 1.00000 2.300 1.000      9.363  23.000
   72 2.240 1.922  2.558 1.000 1.00000 2.250 1.000      0.748  23.000
   73 2.250 1.932  2.568 1.000 1.00000 2.250 1.000      0.954  23.000
   74 2.280 1.959  2.601 1.000 1.00000 2.290 1.000      4.685  23.000
   75 2.290 1.968  2.612 1.000 1.00000 2.290 1.000      7.749  23.000
   76 2.240 1.922  2.558 1.000 1.00000 2.250 1.000      0.953  23.000
   77 2.270 1.950  2.590 1.000 1.00000 2.260 1.000      3.735  23.000
   78 2.240 1.922  2.558 1.000 1.00000 2.250 1.000      0.839  23.000
   79 2.350 2.022  2.678 1.000 1.00000 2.350 1.000     27.461  23.000
   80 2.210 1.895  2.525 1.000 1.00000 2.200 1.000      7.300  23.000
   81 2.220 1.904  2.536 1.000 1.00000 2.220 1.000      4.387  23.000
   82 2.240 1.922  2.558 1.000 1.00000 2.240 1.000      1.155  23.000
   83 2.200 1.886  2.514 1.000 1.00000 2.200 1.000      8.162  23.000
   84 2.230 1.913  2.547 1.000 1.00000 2.240 1.000      3.006  23.000
   85 2.200 1.886  2.514 1.000 1.00000 2.200 1.000      8.941  23.000
   86 2.250 1.932  2.568 1.000 1.00000 2.250 1.000      1.678  23.000
   87 2.200 1.886  2.514 1.000 1.00000 2.200 1.000      8.525  23.000
   88 2.260 1.941  2.579 1.000 1.00000 2.260 1.000      1.308  23.000
   89 2.190 1.877  2.503 1.000 1.00000 2.190 1.000     10.472  23.000
   90 2.310 1.986  2.634 1.000 1.00000 2.310 1.000     13.433  23.000
   91 2.260 1.941  2.579 1.000 1.00000 2.260 1.000      1.632  23.000
   92 2.200 1.886  2.514 1.000 1.00000 2.200 1.000      8.443  23.000
   93 2.260 1.941  2.579 1.000 1.00000 2.260 1.000      1.294  23.000
   94 2.260 1.941  2.579 1.000 1.00000 2.260 1.000      1.502  23.000
   95 2.210 1.895  2.525 1.000 1.00000 2.220 1.000      5.669  23.000
   96 2.250 1.932  2.568 1.000 1.00000 2.250 1.000      1.314  23.000
   97 2.250 1.932  2.568 1.000 1.00000 2.250 1.000      0.654  23.000
   98 2.260 1.941  2.579 1.000 1.00000 2.260 1.000      1.966  23.000
   99 2.250 1.932  2.568 1.000 1.00000 2.250 1.000      0.680  23.000
  100 2.230 1.913  2.547 1.000 1.00000 2.240 1.000      2.983  23.000
  101 2.250 1.932  2.568 1.000 1.00000 2.250 1.000      0.723  23.000
  102 2.290 1.968  2.612 1.000 1.00000 2.290 1.000      7.323  23.000
  103 2.240 1.922  2.558 1.000 1.00000 2.240 1.000      1.362  23.000
  104 2.210 1.895  2.525 1.000 1.00000 2.210 1.000      6.267  23.000
  105 2.280 1.959  2.601 1.000 1.00000 2.280 1.000      4.346  23.000
  106 2.240 1.922  2.558 1.000 1.00000 2.240 1.000      1.258  23.000
  107 2.260 1.941  2.579 1.000 1.00000 2.260 1.000      1.518  23.000
  108 2.240 1.922  2.558 1.000 1.00000 2.240 1.000      1.084  23.000
  109 2.290 1.968  2.612 1.000 1.00000 2.290 1.000      7.248  23.000
  110 2.220 1.904  2.536 1.000 1.00000 2.220 1.000      4.633  23.000
  111 2.260 1.941  2.579 1.000 1.00000 2.260 1.000      1.897  23.000
  112 2.240 1.922  2.558 1.000 1.00000 2.240 1.000      2.255  23.000
  113 2.260 1.941  2.579 1.000 1.00000 2.260 1.000      1.149  23.000
  114 2.260 1.941  2.579 1.000 1.00000 2.260 1.000      1.505  23.000
  115 2.240 1.922  2.558 1.000 1.00000 2.250 1.000      0.731  23.000
  116 2.210 1.895  2.525 1.000 1.00000 2.210 1.000      6.326  23.000
  117 2.250 1.932  2.568 1.000 1.00000 2.250 1.000      0.732  23.000
  118 2.210 1.895  2.525 1.000 1.00000 2.200 1.000      7.372  23.000
  119 2.260 1.941  2.579 1.000 1.00000 2.260 1.000      1.466  23.000
  120 2.260 1.941  2.579 1.000 1.00000 2.260 1.000      1.513  23.000
  121 2.240 1.922  2.558 1.000 1.00000 2.240 1.000      1.156  23.000
  122 2.370 2.040  2.700 1.000 1.00000 2.370 1.000     34.074  23.000
  123 2.330 2.004  2.656 1.000 1.00000 2.340 1.000     21.188  23.000
  124 2.240 1.922  2.558 1.000 1.00000 2.250 1.000      0.860  23.000
  125 2.250 1.932  2.568 1.000 1.00000 2.250 1.000      0.701  23.000
  126 2.150 1.841  2.459 1.000 1.00000 2.150 1.000     10.659  23.000
  127 2.150 1.841  2.459 1.000 1.00000 2.150 1.000     10.769  23.000
  128 2.260 1.941  2.579 1.000 1.00000 2.260 1.000      1.419  23.000
  129 2.250 1.932  2.568 1.000 1.00000 2.250 1.000      0.689  23.000
  130 2.240 1.922  2.558 1.000 1.00000 2.240 1.000      1.526  23.000
  131 2.280 1.959  2.601 1.000 1.00000 2.280 1.000      4.165  23.000
  132 2.250 1.932  2.568 1.000 1.00000 2.250 1.000      0.640  23.000
  133 2.220 1.904  2.536 1.000 1.00000 2.230 1.000      4.121  23.000
  134 2.300 1.977  2.623 1.000 1.00000 2.300 1.000      9.857  23.000
  135 2.220 1.904  2.536 1.000 1.00000 2.220 1.000      5.107  23.000
  136 2.300 1.977  2.623 1.000 1.00000 2.300 1.000      9.954  23.000
  137 2.250 1.932  2.568 1.000 1.00000 2.250 1.000      0.640  23.000
  138 2.260 1.941  2.579 1.000 1.00000 2.260 1.000      2.257  23.000
  139 2.280 1.959  2.601 1.000 1.00000 2.280 1.000      4.245  23.000
  140 2.300 1.977  2.623 1.000 1.00000 2.300 1.000     12.000  23.000
  141 2.280 1.959  2.601 1.000 1.00000 2.280 1.000      4.470  23.000
  142 2.240 1.922  2.558 1.000 1.00000 2.250 1.000      0.959  23.000
  143 2.290 1.968  2.612 1.000 1.00000 2.290 1.000      5.695  23.000
  144 2.250 1.932  2.568 1.000 1.00000 2.250 1.000      0.714  23.000
  145 2.240 1.922  2.558 1.000 1.00000 2.240 1.000      1.056  23.000
  146 2.260 1.941  2.579 1.000 1.00000 2.260 1.000      1.251  23.000
  147 2.150 1.841  2.459 1.000 1.00000 2.150 1.000     10.688  23.000
  148 2.210 1.895  2.525 1.000 1.00000 2.210 1.000      6.724  23.000
  149 2.290 1.968  2.612 1.000 1.00000 2.290 1.000      6.495  23.000
  150 2.300 1.977  2.623 1.000 1.00000 2.310 1.000     13.023  23.000
  151 2.250 1.932  2.568 1.000 1.00000 2.250 1.000      0.647  23.000
  152 2.240 1.922  2.558 1.000 1.00000 2.240 1.000      2.197  23.000
  153 2.210 1.895  2.525 1.000 1.00000 2.210 1.000      6.910  23.000
  154 2.260 1.941  2.579 1.000 1.00000 2.260 1.000      1.873  23.000
  155 2.150 1.841  2.459 1.000 1.00000 2.150 1.000     10.716  23.000
  156 2.220 1.904  2.536 1.000 1.00000 2.220 1.000      5.640  23.000
  157 2.290 1.968  2.612 1.000 1.00000 2.290 1.000      7.776  23.000
  158 2.310 1.986  2.634 1.000 1.00000 2.310 1.000     15.673  23.000
  159 2.240 1.922  2.558 1.000 1.00000 2.240 1.000      1.065  23.000
  160 2.250 1.932  2.568 1.000 1.00000 2.250 1.000      1.473  23.000
  161 2.260 1.941  2.579 1.000 1.00000 2.260 1.000      2.117  23.000
  162 2.250 1.932  2.568 1.000 1.00000 2.250 1.000      0.718  23.000
  163 2.310 1.986  2.634 1.000 1.00000 2.310 1.000     14.696  23.000
  164 2.200 1.886  2.514 1.000 1.00000 2.200 1.000      7.398  23.000
  165 2.250 1.932  2.568 1.000 1.00000 2.250 1.000      0.640  23.000
  166 2.210 1.895  2.525 1.000 1.00000 2.210 1.000      6.595  23.000
  167 2.160 1.850  2.470 1.000 1.00000 2.150 1.000     11.348  23.000
  168 2.260 1.941  2.579 1.000 1.00000 2.260 1.000      1.253  23.000
  169 2.240 1.922  2.558 1.000 1.00000 2.240 1.000      2.072  23.000
  170 2.240 1.922  2.558 1.000 1.00000 2.240 1.000      1.828  23.000
  171 2.260 1.941  2.579 1.000 1.00000 2.260 1.000      1.491  23.000
  172 2.310 1.986  2.634 1.000 1.00000 2.310 1.000     15.695  23.000
  173 2.310 1.986  2.634 1.000 1.00000 2.310 1.000     14.956  23.000
  174 2.290 1.968  2.612 1.000 1.00000 2.290 1.000      5.820  23.000
  175 2.210 1.895  2.525 1.000 1.00000 2.210 1.000      6.568  23.000
  176 2.260 1.941  2.579 1.000 1.00000 2.260 1.000      1.909  23.000
  177 2.200 1.886  2.514 1.000 1.00000 2.200 1.000      7.485  23.000
  178 2.320 1.995  2.645 1.000 1.00000 2.310 1.000     17.043  23.000
  179 2.250 1.932  2.568 1.000 1.00000 2.250 1.000      1.491  23.000
  180 2.330 2.004  2.656 1.000 1.00000 2.340 1.000     22.137  23.000
  181 2.250 1.932  2.568 1.000 1.00000 2.250 1.000      0.647  23.000
  182 2.440 2.103  2.777 1.000 1.00000 2.440 1.000     40.634  23.000
  183 2.290 1.968  2.612 1.000 1.00000 2.290 1.000      6.884  23.000
  184 2.260 1.941  2.579 1.000 1.00000 2.260 1.000      1.843  23.000
  185 2.360 2.031  2.689 1.000 1.00000 2.350 1.000     29.556  23.000
  186 2.220 1.904  2.536 1.000 1.00000 2.220 1.000      5.329  23.000
  187 2.220 1.904  2.536 1.000 1.00000 2.220 1.000      4.688  23.000
  188 2.260 1.941  2.579 1.000 1.00000 2.260 1.000      1.894  23.000
  189 2.260 1.941  2.579 1.000 1.00000 2.260 1.000      1.539  23.000
  190 2.260 1.941  2.579 1.000 1.00000 2.260 1.000      1.917  23.000
  191 2.230 1.913  2.547 1.000 1.00000 2.230 1.000      3.683  23.000
  192 2.190 1.877  2.503 1.000 1.00000 2.190 1.000     10.941  23.000
  193 2.260 1.941  2.579 1.000 1.00000 2.260 1.000      2.147  23.000
  194 2.250 1.932  2.568 1.000 1.00000 2.250 1.000      0.666  23.000
  195 2.350 2.022  2.678 1.000 1.00000 2.350 1.000     26.117  23.000
  196 2.210 1.895  2.525 1.000 1.00000 2.200 1.000      7.300  23.000
  197 2.190 1.877  2.503 1.000 1.00000 2.190 1.000     10.626  23.000
  198 2.210 1.895  2.525 1.000 1.00000 2.210 1.000      6.561  23.000
  199 2.200 1.886  2.514 1.000 1.00000 2.200 1.000      8.941  23.000
  200 2.250 1.932  2.568 1.000 1.00000 2.250 1.000      0.632  23.000
  201 2.260 1.941  2.579 1.000 1.00000 2.260 1.000      1.389  23.000
  202 2.250 1.932  2.568 1.000 1.00000 2.250 1.000      0.683  23.000
  203 2.220 1.904  2.536 1.000 1.00000 2.220 1.000      4.222  23.000
  204 2.280 1.959  2.601 1.000 1.00000 2.290 1.000      5.113  23.000
  205 2.220 1.904  2.536 1.000 1.00000 2.220 1.000      4.706  23.000
  206 2.250 1.932  2.568 1.000 1.00000 2.250 1.000      0.990  23.000
  207 2.250 1.932  2.568 1.000 1.00000 2.250 1.000      1.031  23.000
  208 2.480 2.139  2.821 1.000 1.00000 2.480 1.000     51.468  23.000
  209 2.150 1.841  2.459 1.000 1.00000 2.150 1.000      9.524  23.000
  210 2.240 1.922  2.558 1.000 1.00000 2.240 1.000      1.658  23.000
  211 2.270 1.950  2.590 1.000 1.00000 2.260 1.000      2.865  23.000
  212 2.250 1.932  2.568 1.000 1.00000 2.250 1.000      1.695  23.000
  213 2.280 1.959  2.601 1.000 1.00000 2.290 1.000      4.895  23.000
  214 2.260 1.941  2.579 1.000 1.00000 2.260 1.000      2.209  23.000
  215 2.260 1.941  2.579 1.000 1.00000 2.260 1.000      1.739  23.000
  216 2.190 1.877  2.503 1.000 1.00000 2.200 1.000      9.425  23.000
  217 2.270 1.950  2.590 1.000 1.00000 2.260 1.000      2.907  23.000
  218 2.250 1.932  2.568 1.000 1.00000 2.250 1.000      0.692  23.000
  219 2.250 1.932  2.568 1.000 1.00000 2.250 1.000      0.624  23.000
  220 2.290 1.968  2.612 1.000 1.00000 2.290 1.000      7.280  23.000
  221 2.240 1.922  2.558 1.000 1.00000 2.240 1.000      1.610  23.000
  222 2.290 1.968  2.612 1.000 1.00000 2.290 1.000      5.744  23.000
  223 2.260 1.941  2.579 1.000 1.00000 2.260 1.000      2.058  23.000
  224 2.150 1.841  2.459 1.000 1.00000 2.150 1.000      9.351  23.000
  225 2.260 1.941  2.579 1.000 1.00000 2.260 1.000      1.246  23.000
  226 2.210 1.895  2.525 1.000 1.00000 2.210 1.000      6.595  23.000
  227 2.230 1.913  2.547 1.000 1.00000 2.240 1.000      3.146  23.000
  228 2.260 1.941  2.579 1.000 1.00000 2.260 1.000      1.779  23.000
  229 2.340 2.013  2.667 1.000 1.00000 2.340 1.000     25.062  23.000
  230 2.440 2.103  2.777 1.000 1.00000 2.440 1.000     40.349  23.000
  231 2.260 1.941  2.579 1.000 1.00000 2.260 1.000      1.847  23.000
  232 2.250 1.932  2.568 1.000 1.00000 2.250 1.000      1.536  23.000
  233 2.260 1.941  2.579 1.000 1.00000 2.260 1.000      1.773  23.000
  234 2.260 1.941  2.579 1.000 1.00000 2.260 1.000      1.343  23.000
  235 2.240 1.922  2.558 1.000 1.00000 2.240 1.000      1.043  23.000
  236 2.210 1.895  2.525 1.000 1.00000 2.200 1.000      7.089  23.000
  237 2.270 1.950  2.590 1.000 1.00000 2.260 1.000      3.021  23.000
  238 2.250 1.932  2.568 1.000 1.00000 2.250 1.000      0.632  23.000
  239 2.280 1.959  2.601 1.000 1.00000 2.290 1.000      5.183  23.000
  240 2.200 1.886  2.514 1.000 1.00000 2.200 1.000      8.101  23.000
  241 2.200 1.886  2.514 1.000 1.00000 2.200 1.000      7.572  23.000
  242 2.290 1.968  2.612 1.000 1.00000 2.290 1.000      6.576  23.000
  243 2.250 1.932  2.568 1.000 1.00000 2.250 1.000      0.567  23.000
  244 2.250 1.932  2.568 1.000 1.00000 2.250 1.000      0.649  23.000
  245 2.280 1.959  2.601 1.000 1.00000 2.290 1.000      4.693  23.000
  246 2.260 1.941  2.579 1.000 1.00000 2.260 1.000      1.314  23.000
  247 2.260 1.941  2.579 1.000 1.00000 2.260 1.000      1.739  23.000
  248 2.240 1.922  2.558 1.000 1.00000 2.250 1.000      0.839  23.000
  249 2.300 1.977  2.623 1.000 1.00000 2.300 1.000     10.050  23.000
  250 2.310 1.986  2.634 1.000 1.00000 2.310 1.000     14.939  23.000
  251 2.220 1.904  2.536 1.000 1.00000 2.220 1.000      5.130  23.000
  252 2.240 1.922  2.558 1.000 1.00000 2.240 1.000      1.443  23.000
  253 2.250 1.932  2.568 1.000 1.00000 2.250 1.000      1.208  23.000
  254 2.240 1.922  2.558 1.000 1.00000 2.240 1.000      1.136  23.000
  255 2.340 2.013  2.667 1.000 1.00000 2.340 1.000     24.812  23.000
  256 2.210 1.895  2.525 1.000 1.00000 2.210 1.000      6.117  23.000
  257 2.210 1.895  2.525 1.000 1.00000 2.210 1.000      6.716  23.000
  258 2.240 1.922  2.558 1.000 1.00000 2.240 1.000      1.060  23.000
  259 2.250 1.932  2.568 1.000 1.00000 2.250 1.000      0.677  23.000
  260 2.260 1.941  2.579 1.000 1.00000 2.260 1.000      1.530  23.000
  261 2.230 1.913  2.547 1.000 1.00000 2.240 1.000      2.564  23.000
  262 2.260 1.941  2.579 1.000 1.00000 2.260 1.000      1.795  23.000
  263 2.250 1.932  2.568 1.000 1.00000 2.250 1.000      1.264  23.000
  264 2.260 1.941  2.579 1.000 1.00000 2.260 1.000      1.434  23.000
  265 2.260 1.941  2.579 1.000 1.00000 2.260 1.000      1.255  23.000
  266 2.250 1.932  2.568 1.000 1.00000 2.250 1.000      1.151  23.000
  267 2.290 1.968  2.612 1.000 1.00000 2.290 1.000      5.337  23.000
  268 2.260 1.941  2.579 1.000 1.00000 2.260 1.000      1.760  23.000
  269 2.320 1.995  2.645 1.000 1.00000 2.320 1.000     17.882  23.000
  270 2.150 1.841  2.459 1.000 1.00000 2.150 1.000     10.531  23.000
  271 2.280 1.959  2.601 1.000 1.00000 2.290 1.000      4.612  23.000
  272 2.320 1.995  2.645 1.000 1.00000 2.320 1.000     17.911  23.000
  273 2.240 1.922  2.558 1.000 1.00000 2.240 1.000      1.038  23.000
  274 2.260 1.941  2.579 1.000 1.00000 2.260 1.000      1.573  23.000
  275 2.290 1.968  2.612 1.000 1.00000 2.290 1.000      6.729  23.000
  276 2.260 1.941  2.579 1.000 1.00000 2.260 1.000      1.278  23.000
  277 2.240 1.922  2.558 1.000 1.00000 2.240 1.000      1.680  23.000
  278 2.150 1.841  2.459 1.000 1.00000 2.150 1.000     10.171  23.000
  279 2.260 1.941  2.579 1.000 1.00000 2.260 1.000      2.146  23.000
  280 2.190 1.877  2.503 1.000 1.00000 2.200 1.000      9.734  23.000
  281 2.240 1.922  2.558 1.000 1.00000 2.250 1.000      0.741  23.000
  282 2.250 1.932  2.568 1.000 1.00000 2.250 1.000      0.668  23.000
  283 2.240 1.922  2.558 1.000 1.00000 2.240 1.000      1.107  23.000
  284 2.330 2.004  2.656 1.000 1.00000 2.340 1.000     22.642  23.000
  285 2.300 1.977  2.623 1.000 1.00000 2.300 1.000     11.701  23.000
  286 2.290 1.968  2.612 1.000 1.00000 2.290 1.000      5.671  23.000
  287 2.240 1.922  2.558 1.000 1.00000 2.240 1.000      1.126  23.000
  288 2.260 1.941  2.579 1.000 1.00000 2.260 1.000      1.530  23.000
  289 2.340 2.013  2.667 1.000 1.00000 2.340 1.000     24.740  23.000
  290 2.240 1.922  2.558 1.000 1.00000 2.240 1.000      1.832  23.000
  291 2.250 1.932  2.568 1.000 1.00000 2.250 1.000      0.905  23.000
  292 2.310 1.986  2.634 1.000 1.00000 2.310 1.000     15.402  23.000
  293 2.230 1.913  2.547 1.000 1.00000 2.230 1.000      3.825  23.000
  294 2.220 1.904  2.536 1.000 1.00000 2.220 1.000      4.315  23.000
  295 2.270 1.950  2.590 1.000 1.00000 2.260 1.000      2.495  23.000
  296 2.260 1.941  2.579 1.000 1.00000 2.260 1.000      1.268  23.000
  297 2.220 1.904  2.536 1.000 1.00000 2.220 1.000      4.580  23.000
  298 2.230 1.913  2.547 1.000 1.00000 2.230 1.000      3.972  23.000
  299 2.320 1.995  2.645 1.000 1.00000 2.320 1.000     19.508  23.000
  300 2.260 1.941  2.579 1.000 1.00000 2.260 1.000      1.434  23.000
  301 2.290 1.968  2.612 1.000 1.00000 2.290 1.000      6.815  23.000
  302 2.260 1.941  2.579 1.000 1.00000 2.260 1.000      1.250  23.000
  303 2.260 1.941  2.579 1.000 1.00000 2.260 1.000      1.357  23.000
  304 2.320 1.995  2.645 1.000 1.00000 2.320 1.000     18.909  23.000
  305 2.230 1.913  2.547 1.000 1.00000 2.240 1.000      2.671  23.000
  306 2.270 1.950  2.590 1.000 1.00000 2.260 1.000      3.634  23.000
  307 2.250 1.932  2.568 1.000 1.00000 2.250 1.000      0.668  23.000
  308 2.260 1.941  2.579 1.000 1.00000 2.260 1.000      1.256  23.000
  309 2.300 1.977  2.623 1.000 1.00000 2.300 1.000     10.336  23.000
  310 2.240 1.922  2.558 1.000 1.00000 2.240 1.000      2.041  23.000
  311 2.250 1.932  2.568 1.000 1.00000 2.250 1.000      0.791  23.000
  312 2.240 1.922  2.558 1.000 1.00000 2.240 1.000      2.041  23.000
  313 2.240 1.922  2.558 1.000 1.00000 2.240 1.000      2.293  23.000
  314 2.260 1.941  2.579 1.000 1.00000 2.260 1.000      1.685  23.000
  315 2.220 1.904  2.536 1.000 1.00000 2.220 1.000      4.836  23.000
  316 2.240 1.922  2.558 1.000 1.00000 2.240 1.000      1.920  23.000
  317 2.240 1.922  2.558 1.000 1.00000 2.240 1.000      1.543  23.000
  318 2.250 1.932  2.568 1.000 1.00000 2.250 1.000      1.234  23.000
  319 2.150 1.841  2.459 1.000 1.00000 2.150 1.000     11.190  23.000
  320 2.230 1.913  2.547 1.000 1.00000 2.240 1.000      3.196  23.000
  321 2.210 1.895  2.525 1.000 1.00000 2.200 1.000      7.100  23.000
  322 2.250 1.932  2.568 1.000 1.00000 2.250 1.000      0.954  23.000
  323 2.210 1.895  2.525 1.000 1.00000 2.200 1.000      7.239  23.000
  324 2.250 1.932  2.568 1.000 1.00000 2.250 1.000      0.675  23.000
  325 2.270 1.950  2.590 1.000 1.00000 2.260 1.000      2.412  23.000
  326 2.230 1.913  2.547 1.000 1.00000 2.240 1.000      3.049  23.000
  327 2.240 1.922  2.558 1.000 1.00000 2.250 1.000      0.720  23.000
  328 2.250 1.932  2.568 1.000 1.00000 2.250 1.000      1.238  23.000
  329 2.270 1.950  2.590 1.000 1.00000 2.260 1.000      2.462  23.000
  330 2.250 1.932  2.568 1.000 1.00000 2.250 1.000      0.649  23.000
  331 2.260 1.941  2.579 1.000 1.00000 2.260 1.000      1.257  23.000
  332 2.350 2.022  2.678 1.000 1.00000 2.350 1.000     27.413  23.000
  333 2.240 1.922  2.558 1.000 1.00000 2.240 1.000      2.007  23.000
  334 2.150 1.841  2.459 1.000 1.00000 2.150 1.000     10.461  23.000
  335 2.240 1.922  2.558 1.000 1.00000 2.240 1.000      2.217  23.000
  336 2.210 1.895  2.525 1.000 1.00000 2.210 1.000      6.117  23.000
  337 2.240 1.922  2.558 1.000 1.00000 2.240 1.000      1.113  23.000
  338 2.260 1.941  2.579 1.000 1.00000 2.260 1.000      1.250  23.000
  339 2.250 1.932  2.568 1.000 1.00000 2.250 1.000      0.660  23.000
  340 2.260 1.941  2.579 1.000 1.00000 2.260 1.000      1.253  23.000
  341 2.240 1.922  2.558 1.000 1.00000 2.240 1.000      1.100  23.000
  342 2.150 1.841  2.459 1.000 1.00000 2.150 1.000      9.936  23.000
  343 2.240 1.922  2.558 1.000 1.00000 2.240 1.000      1.860  23.000
  344 2.240 1.922  2.558 1.000 1.00000 2.240 1.000      1.468  23.000
  345 2.260 1.941  2.579 1.000 1.00000 2.260 1.000      1.424  23.000
  346 2.260 1.941  2.579 1.000 1.00000 2.260 1.000      1.266  23.000
  347 2.150 1.841  2.459 1.000 1.00000 2.150 1.000      9.331  23.000
  348 2.240 1.922  2.558 1.000 1.00000 2.250 1.000      0.766  23.000
  349 2.290 1.968  2.612 1.000 1.00000 2.300 1.000      8.207  23.000
  350 2.290 1.968  2.612 1.000 1.00000 2.290 1.000      7.963  23.000
  351 2.260 1.941  2.579 1.000 1.00000 2.260 1.000      1.247  23.000
  352 2.220 1.904  2.536 1.000 1.00000 2.220 1.000      5.522  23.000
  353 2.250 1.932  2.568 1.000 1.00000 2.250 1.000      1.580  23.000
  354 2.260 1.941  2.579 1.000 1.00000 2.260 1.000      1.331  23.000
  355 2.300 1.977  2.623 1.000 1.00000 2.300 1.000     11.395  23.000
  356 2.240 1.922  2.558 1.000 1.00000 2.250 1.000      0.990  23.000
  357 2.250 1.932  2.568 1.000 1.00000 2.250 1.000      0.760  23.000
  358 2.260 1.941  2.579 1.000 1.00000 2.260 1.000      1.783  23.000
  359 2.270 1.950  2.590 1.000 1.00000 2.260 1.000      2.804  23.000
  360 2.350 2.022  2.678 1.000 1.00000 2.350 1.000     25.946  23.000
  361 2.240 1.922  2.558 1.000 1.00000 2.240 1.000      1.051  23.000
  362 2.240 1.922  2.558 1.000 1.00000 2.250 1.000      0.774  23.000
  363 2.210 1.895  2.525 1.000 1.00000 2.210 1.000      6.565  23.000
  364 2.290 1.968  2.612 1.000 1.00000 2.290 1.000      6.469  23.000
  365 2.230 1.913  2.547 1.000 1.00000 2.230 1.000      3.458  23.000
  366 2.260 1.941  2.579 1.000 1.00000 2.260 1.000      1.212  23.000
  367 2.240 1.922  2.558 1.000 1.00000 2.240 1.000      1.596  23.000
  368 2.280 1.959  2.601 1.000 1.00000 2.290 1.000      4.812  23.000
  369 2.260 1.941  2.579 1.000 1.00000 2.260 1.000      1.663  23.000
  370 2.260 1.941  2.579 1.000 1.00000 2.260 1.000      1.445  23.000
  371 2.230 1.913  2.547 1.000 1.00000 2.230 1.000      3.660  23.000
  372 2.250 1.932  2.568 1.000 1.00000 2.250 1.000      0.776  23.000
  373 2.260 1.941  2.579 1.000 1.00000 2.260 1.000      1.489  23.000
  374 2.150 1.841  2.459 1.000 1.00000 2.150 1.000      9.333  23.000
  375 2.250 1.932  2.568 1.000 1.00000 2.250 1.000      1.404  23.000
  376 2.250 1.932  2.568 1.000 1.00000 2.250 1.000      0.841  23.000
  377 2.150 1.841  2.459 1.000 1.00000 2.150 1.000     10.186  23.000
  378 2.220 1.904  2.536 1.000 1.00000 2.220 1.000      4.781  23.000
  379 2.230 1.913  2.547 1.000 1.00000 2.230 1.000      3.995  23.000
  380 2.260 1.941  2.579 1.000 1.00000 2.260 1.000      1.796  23.000
  381 2.250 1.932  2.568 1.000 1.00000 2.250 1.000      1.705  23.000
  382 2.260 1.941  2.579 1.000 1.00000 2.260 1.000      1.231  23.000
  383 2.260 1.941  2.579 1.000 1.00000 2.260 1.000      1.430  23.000
  384 2.230 1.913  2.547 1.000 1.00000 2.240 1.000      2.823  23.000
  385 2.230 1.913  2.547 1.000 1.00000 2.230 1.000      3.660  23.000
  386 2.190 1.877  2.503 1.000 1.00000 2.190 1.000     10.281  23.000
  387 2.250 1.932  2.568 1.000 1.00000 2.250 1.000      0.697  23.000
  388 2.230 1.913  2.547 1.000 1.00000 2.240 1.000      3.343  23.000
  389 2.380 2.049  2.711 1.000 1.00000 2.370 1.000     35.540  23.000
  390 2.270 1.950  2.590 1.000 1.00000 2.260 1.000      2.513  23.000
  391 2.220 1.904  2.536 1.000 1.00000 2.220 1.000      4.269  23.000
  392 2.200 1.886  2.514 1.000 1.00000 2.200 1.000      8.270  23.000
  393 2.200 1.886  2.514 1.000 1.00000 2.200 1.000      8.471  23.000
  394 2.390 2.058  2.722 1.000 1.00000 2.430 1.000     35.842  23.000
  395 2.240 1.922  2.558 1.000 1.00000 2.240 1.000      1.298  23.000
  396 2.150 1.841  2.459 1.000 1.00000 2.150 1.000      9.450  23.000
  397 2.240 1.922  2.558 1.000 1.00000 2.240 1.000      1.596  23.000
  398 2.270 1.950  2.590 1.000 1.00000 2.260 1.000      3.535  23.000
  399 2.260 1.941  2.579 1.000 1.00000 2.260 1.000      1.323  23.000
  400 2.270 1.950  2.590 1.000 1.00000 2.260 1.000      3.182  23.000
  401 2.220 1.904  2.536 1.000 1.00000 2.220 1.000      4.222  23.000
  402 2.370 2.040  2.700 1.000 1.00000 2.370 1.000     31.665  23.000
  403 2.250 1.932  2.568 1.000 1.00000 2.250 1.000      1.184  23.000
  404 2.250 1.932  2.568 1.000 1.00000 2.250 1.000      1.185  23.000
  405 2.260 1.941  2.579 1.000 1.00000 2.260 1.000      1.255  23.000
  406 2.270 1.950  2.590 1.000 1.00000 2.260 1.000      3.229  23.000
  407 2.250 1.932  2.568 1.000 1.00000 2.250 1.000      0.863  23.000
  408 2.220 1.904  2.536 1.000 1.00000 2.220 1.000      5.381  23.000
  409 2.250 1.932  2.568 1.000 1.00000 2.250 1.000      0.621  23.000
  410 2.240 1.922  2.558 1.000 1.00000 2.250 1.000      0.952  23.000
  411 2.220 1.904  2.536 1.000 1.00000 2.230 1.000      4.197  23.000
  412 2.230 1.913  2.547 1.000 1.00000 2.240 1.000      2.781  23.000
  413 2.460 2.121  2.799 1.000 1.00000 2.440 1.000     49.426  23.000
  414 2.350 2.022  2.678 1.000 1.00000 2.350 1.000     25.853  23.000
  415 2.230 1.913  2.547 1.000 1.00000 2.230 1.000      3.683  23.000
  416 2.310 1.986  2.634 1.000 1.00000 2.310 1.000     12.837  23.000
  417 2.330 2.004  2.656 1.000 1.00000 2.340 1.000     20.674  23.000
  418 2.260 1.941  2.579 1.000 1.00000 2.260 1.000      1.230  23.000
  419 2.230 1.913  2.547 1.000 1.00000 2.240 1.000      3.343  23.000
  420 2.260 1.941  2.579 1.000 1.00000 2.260 1.000      1.125  23.000
  421 2.300 1.977  2.623 1.000 1.00000 2.300 1.000      8.628  23.000
  422 2.350 2.022  2.678 1.000 1.00000 2.350 1.000     27.705  23.000
  423 2.250 1.932  2.568 1.000 1.00000 2.250 1.000      1.897  23.000
  424 2.260 1.941  2.579 1.000 1.00000 2.260 1.000      1.346  23.000
  425 2.260 1.941  2.579 1.000 1.00000 2.260 1.000      1.319  23.000
  426 2.260 1.941  2.579 1.000 1.00000 2.260 1.000      1.706  23.000
  427 2.240 1.922  2.558 1.000 1.00000 2.250 1.000      0.714  23.000
  428 2.280 1.959  2.601 1.000 1.00000 2.290 1.000      4.529  23.000
  429 2.210 1.895  2.525 1.000 1.00000 2.200 1.000      7.300  23.000
  430 2.270 1.950  2.590 1.000 1.00000 2.260 1.000      3.501  23.000
  431 2.240 1.922  2.558 1.000 1.00000 2.250 1.000      0.804  23.000
  432 2.260 1.941  2.579 1.000 1.00000 2.260 1.000      1.783  23.000
  433 2.300 1.977  2.623 1.000 1.00000 2.300 1.000     10.833  23.000
  434 2.210 1.895  2.525 1.000 1.00000 2.200 1.000      6.977  23.000
  435 2.350 2.022  2.678 1.000 1.00000 2.350 1.000     26.487  23.000
  436 2.260 1.941  2.579 1.000 1.00000 2.260 1.000      1.230  23.000
  437 2.250 1.932  2.568 1.000 1.00000 2.250 1.000      1.031  23.000
  438 2.310 1.986  2.634 1.000 1.00000 2.310 1.000     16.207  23.000
  439 2.260 1.941  2.579 1.000 1.00000 2.260 1.000      1.252  23.000
  440 2.370 2.040  2.700 1.000 1.00000 2.370 1.000     33.177  23.000
  441 2.260 1.941  2.579 1.000 1.00000 2.260 1.000      1.596  23.000
  442 2.300 1.977  2.623 1.000 1.00000 2.300 1.000     12.738  23.000
  443 2.250 1.932  2.568 1.000 1.00000 2.250 1.000      0.918  23.000
  444 2.290 1.968  2.612 1.000 1.00000 2.290 1.000      8.194  23.000
  445 2.240 1.922  2.558 1.000 1.00000 2.240 1.000      1.092  23.000
  446 2.290 1.968  2.612 1.000 1.00000 2.290 1.000      6.524  23.000
  447 2.250 1.932  2.568 1.000 1.00000 2.250 1.000      1.439  23.000
  448 2.180 1.868  2.492 1.000 1.00000 2.150 1.000     11.537  23.000
  449 2.200 1.886  2.514 1.000 1.00000 2.200 1.000      8.236  23.000
  450 2.250 1.932  2.568 1.000 1.00000 2.250 1.000      0.769  23.000
  451 2.260 1.941  2.579 1.000 1.00000 2.260 1.000      1.505  23.000
  452 2.260 1.941  2.579 1.000 1.00000 2.260 1.000      1.865  23.000
  453 2.230 1.913  2.547 1.000 1.00000 2.230 1.000      3.480  23.000
  454 2.250 1.932  2.568 1.000 1.00000 2.250 1.000      0.646  23.000
  455 2.300 1.977  2.623 1.000 1.00000 2.300 1.000      9.176  23.000
  456 2.250 1.932  2.568 1.000 1.00000 2.250 1.000      0.632  23.000
  457 2.250 1.932  2.568 1.000 1.00000 2.250 1.000      0.631  23.000
  458 2.260 1.941  2.579 1.000 1.00000 2.260 1.000      1.365  23.000
  459 2.230 1.913  2.547 1.000 1.00000 2.240 1.000      3.218  23.000
  460 2.250 1.932  2.568 1.000 1.00000 2.250 1.000      1.694  23.000
  461 2.230 1.913  2.547 1.000 1.00000 2.230 1.000      4.020  23.000
  462 2.350 2.022  2.678 1.000 1.00000 2.350 1.000     25.734  23.000
  463 2.250 1.932  2.568 1.000 1.00000 2.250 1.000      1.796  23.000
  464 2.250 1.932  2.568 1.000 1.00000 2.250 1.000      1.476  23.000
  465 2.250 1.932  2.568 1.000 1.00000 2.250 1.000      1.401  23.000
  466 2.260 1.941  2.579 1.000 1.00000 2.260 1.000      1.262  23.000
  467 2.260 1.941  2.579 1.000 1.00000 2.260 1.000      1.251  23.000
  468 2.270 1.950  2.590 1.000 1.00000 2.260 1.000      3.644  23.000
  469 2.260 1.941  2.579 1.000 1.00000 2.260 1.000      1.704  23.000
  470 2.240 1.922  2.558 1.000 1.00000 2.240 1.000      1.238  23.000
  471 2.220 1.904  2.536 1.000 1.00000 2.220 1.000      5.350  23.000
  472 2.260 1.941  2.579 1.000 1.00000 2.260 1.000      1.260  23.000
  473 2.260 1.941  2.579 1.000 1.00000 2.260 1.000      1.328  23.000
  474 2.270 1.950  2.590 1.000 1.00000 2.260 1.000      2.521  23.000
  475 2.370 2.040  2.700 1.000 1.00000 2.370 1.000     32.599  23.000
  476 2.260 1.941  2.579 1.000 1.00000 2.260 1.000      1.191  23.000
  477 2.230 1.913  2.547 1.000 1.00000 2.240 1.000      3.292  23.000
  478 2.260 1.941  2.579 1.000 1.00000 2.260 1.000      1.312  23.000
  479 2.250 1.932  2.568 1.000 1.00000 2.250 1.000      1.350  23.000
  480 2.290 1.968  2.612 1.000 1.00000 2.290 1.000      7.778  23.000
  481 2.250 1.932  2.568 1.000 1.00000 2.250 1.000      0.673  23.000
  482 2.260 1.941  2.579 1.000 1.00000 2.260 1.000      1.262  23.000
  483 2.190 1.877  2.503 1.000 1.00000 2.190 1.000     10.743  23.000
  484 2.370 2.040  2.700 1.000 1.00000 2.370 1.000     34.248  23.000
  485 2.200 1.886  2.514 1.000 1.00000 2.200 1.000      8.236  23.000
  486 2.240 1.922  2.558 1.000 1.00000 2.240 1.000      1.583  23.000
  487 2.250 1.932  2.568 1.000 1.00000 2.250 1.000      0.652  23.000
  488 2.200 1.886  2.514 1.000 1.00000 2.200 1.000      7.701  23.000
  489 2.260 1.941  2.579 1.000 1.00000 2.260 1.000      2.102  23.000
  490 2.260 1.941  2.579 1.000 1.00000 2.260 1.000      1.605  23.000
  491 2.250 1.932  2.568 1.000 1.00000 2.250 1.000      0.622  23.000
  492 2.240 1.922  2.558 1.000 1.00000 2.240 1.000      1.694  23.000
  493 2.230 1.913  2.547 1.000 1.00000 2.240 1.000      3.094  23.000
  494 2.260 1.941  2.579 1.000 1.00000 2.260 1.000      1.774  23.000
  495 2.220 1.904  2.536 1.000 1.00000 2.220 1.000      4.657  23.000
  496 2.310 1.986  2.634 1.000 1.00000 2.310 1.000     15.724  23.000
  497 2.440 2.103  2.777 1.000 1.00000 2.440 1.000     42.704  23.000
  498 2.370 2.040  2.700 1.000 1.00000 2.370 1.000     33.571  23.000
  499 2.210 1.895  2.525 1.000 1.00000 2.210 1.000      6.701  23.000
  500 2.180 1.868  2.492 1.000 1.00000 2.180 1.000     11.279  23.000
  501 2.220 1.904  2.536 1.000 1.00000 2.220 1.000      4.318  23.000
  502 2.240 1.922  2.558 1.000 1.00000 2.240 1.000      1.895  23.000
  503 2.240 1.922  2.558 1.000 1.00000 2.240 1.000      1.953  23.000
  504 2.240 1.922  2.558 1.000 1.00000 2.240 1.000      2.312  23.000
  505 2.150 1.841  2.459 1.000 1.00000 2.150 1.000     10.201  23.000
  506 2.150 1.841  2.459 1.000 1.00000 2.150 1.000      9.370  23.000
  507 2.270 1.950  2.590 1.000 1.00000 2.260 1.000      2.804  23.000
  508 2.210 1.895  2.525 1.000 1.00000 2.210 1.000      6.234  23.000
  509 2.240 1.922  2.558 1.000 1.00000 2.240 1.000      1.319  23.000
  510 2.290 1.968  2.612 1.000 1.00000 2.290 1.000      6.384  23.000
  511 2.230 1.913  2.547 1.000 1.00000 2.240 1.000      3.194  23.000
  512 2.250 1.932  2.568 1.000 1.00000 2.250 1.000      1.185  23.000
  513 2.320 1.995  2.645 1.000 1.00000 2.310 1.000     17.449  23.000
  514 2.260 1.941  2.579 1.000 1.00000 2.260 1.000      1.223  23.000
  515 2.250 1.932  2.568 1.000 1.00000 2.250 1.000      1.623  23.000
  516 2.360 2.031  2.689 1.000 1.00000 2.350 1.000     28.760  23.000
  517 2.260 1.941  2.579 1.000 1.00000 2.260 1.000      1.319  23.000
  518 2.250 1.932  2.568 1.000 1.00000 2.250 1.000      0.788  23.000
  519 2.260 1.941  2.579 1.000 1.00000 2.260 1.000      1.858  23.000
  520 2.270 1.950  2.590 1.000 1.00000 2.260 1.000      3.609  23.000
  521 2.240 1.922  2.558 1.000 1.00000 2.240 1.000      1.298  23.000
  522 2.220 1.904  2.536 1.000 1.00000 2.220 1.000      4.645  23.000
  523 2.250 1.932  2.568 1.000 1.00000 2.250 1.000      1.272  23.000
  524 2.280 1.959  2.601 1.000 1.00000 2.290 1.000      4.606  23.000
  525 2.150 1.841  2.459 1.000 1.00000 2.150 1.000      9.332  23.000
  526 2.190 1.877  2.503 1.000 1.00000 2.190 1.000     11.099  23.000
  527 2.240 1.922  2.558 1.000 1.00000 2.240 1.000      1.596  23.000
  528 2.210 1.895  2.525 1.000 1.00000 2.210 1.000      6.006  23.000
  529 2.260 1.941  2.579 1.000 1.00000 2.260 1.000      1.844  23.000
  530 2.260 1.941  2.579 1.000 1.00000 2.260 1.000      1.289  23.000
  531 2.250 1.932  2.568 1.000 1.00000 2.250 1.000      0.670  23.000
  532 2.240 1.922  2.558 1.000 1.00000 2.250 1.000      0.990  23.000
  533 2.200 1.886  2.514 1.000 1.00000 2.200 1.000      8.380  23.000
  534 2.150 1.841  2.459 1.000 1.00000 2.150 1.000      9.749  23.000
  535 2.260 1.941  2.579 1.000 1.00000 2.260 1.000      1.312  23.000
  536 2.310 1.986  2.634 1.000 1.00000 2.310 1.000     14.538  23.000
  537 2.250 1.932  2.568 1.000 1.00000 2.250 1.000      1.525  23.000
  538 2.250 1.932  2.568 1.000 1.00000 2.250 1.000      0.647  23.000
  539 2.280 1.959  2.601 1.000 1.00000 2.290 1.000      5.140  23.000
  540 2.230 1.913  2.547 1.000 1.00000 2.240 1.000      3.326  23.000
  541 2.200 1.886  2.514 1.000 1.00000 2.200 1.000      7.392  23.000
  542 2.290 1.968  2.612 1.000 1.00000 2.290 1.000      7.769  23.000
  543 2.240 1.922  2.558 1.000 1.00000 2.240 1.000      2.093  23.000
  544 2.300 1.977  2.623 1.000 1.00000 2.300 1.000     11.278  23.000
  545 2.150 1.841  2.459 1.000 1.00000 2.150 1.000     11.212  23.000
  546 2.250 1.932  2.568 1.000 1.00000 2.250 1.000      0.974  23.000
  547 2.260 1.941  2.579 1.000 1.00000 2.260 1.000      1.297  23.000
  548 2.230 1.913  2.547 1.000 1.00000 2.230 1.000      3.436  23.000
  549 2.240 1.922  2.558 1.000 1.00000 2.240 1.000      1.844  23.000
  550 2.250 1.932  2.568 1.000 1.00000 2.250 1.000      0.686  23.000
  551 2.330 2.004  2.656 1.000 1.00000 2.340 1.000     20.026  23.000
  552 2.150 1.841  2.459 1.000 1.00000 2.150 1.000     10.142  23.000
  553 2.250 1.932  2.568 1.000 1.00000 2.250 1.000      1.762  23.000
  554 2.200 1.886  2.514 1.000 1.00000 2.200 1.000      8.270  23.000
  555 2.220 1.904  2.536 1.000 1.00000 2.220 1.000      4.481  23.000
  556 2.290 1.968  2.612 1.000 1.00000 2.290 1.000      5.671  23.000
  557 2.260 1.941  2.579 1.000 1.00000 2.260 1.000      1.894  23.000
  558 2.220 1.904  2.536 1.000 1.00000 2.220 1.000      5.268  23.000
  559 2.260 1.941  2.579 1.000 1.00000 2.260 1.000      1.676  23.000
  560 2.190 1.877  2.503 1.000 1.00000 2.190 1.000     10.235  23.000
  561 2.290 1.968  2.612 1.000 1.00000 2.290 1.000      6.530  23.000
  562 2.240 1.922  2.558 1.000 1.00000 2.250 1.000      0.798  23.000
  563 2.290 1.968  2.612 1.000 1.00000 2.290 1.000      5.341  23.000
  564 2.260 1.941  2.579 1.000 1.00000 2.260 1.000      1.326  23.000
  565 2.190 1.877  2.503 1.000 1.00000 2.200 1.000      9.930  23.000
  566 2.240 1.922  2.558 1.000 1.00000 2.240 1.000      2.164  23.000
  567 2.290 1.968  2.612 1.000 1.00000 2.290 1.000      5.085  23.000
  568 2.340 2.013  2.667 1.000 1.00000 2.340 1.000     22.791  23.000
  569 2.270 1.950  2.590 1.000 1.00000 2.260 1.000      2.722  23.000
  570 2.230 1.913  2.547 1.000 1.00000 2.230 1.000      3.569  23.000
  571 2.210 1.895  2.525 1.000 1.00000 2.210 1.000      6.511  23.000
  572 2.260 1.941  2.579 1.000 1.00000 2.260 1.000      1.459  23.000
  573 2.300 1.977  2.623 1.000 1.00000 2.300 1.000      8.885  23.000
  574 2.180 1.868  2.492 1.000 1.00000 2.180 1.000     11.290  23.000
  575 2.260 1.941  2.579 1.000 1.00000 2.260 1.000      1.250  23.000
  576 2.220 1.904  2.536 1.000 1.00000 2.220 1.000      4.731  23.000
  577 2.260 1.941  2.579 1.000 1.00000 2.260 1.000      1.777  23.000
  578 2.350 2.022  2.678 1.000 1.00000 2.350 1.000     26.018  23.000
  579 2.260 1.941  2.579 1.000 1.00000 2.260 1.000      1.313  23.000
  580 2.220 1.904  2.536 1.000 1.00000 2.220 1.000      5.379  23.000
  581 2.230 1.913  2.547 1.000 1.00000 2.240 1.000      3.121  23.000
  582 2.230 1.913  2.547 1.000 1.00000 2.240 1.000      2.528  23.000
  583 2.350 2.022  2.678 1.000 1.00000 2.350 1.000     25.177  23.000
  584 2.360 2.031  2.689 1.000 1.00000 2.350 1.000     28.545  23.000
  585 2.310 1.986  2.634 1.000 1.00000 2.310 1.000     14.000  23.000
  586 2.310 1.986  2.634 1.000 1.00000 2.310 1.000     13.895  23.000
  587 2.250 1.932  2.568 1.000 1.00000 2.250 1.000      0.726  23.000
  588 2.210 1.895  2.525 1.000 1.00000 2.200 1.000      7.089  23.000
  589 2.200 1.886  2.514 1.000 1.00000 2.200 1.000      8.202  23.000
  590 2.220 1.904  2.536 1.000 1.00000 2.220 1.000      5.581  23.000
  591 2.260 1.941  2.579 1.000 1.00000 2.260 1.000      1.643  23.000
  592 2.240 1.922  2.558 1.000 1.00000 2.250 1.000      0.729  23.000
  593 2.240 1.922  2.558 1.000 1.00000 2.240 1.000      1.860  23.000
  594 2.230 1.913  2.547 1.000 1.00000 2.240 1.000      2.408  23.000
  595 2.250 1.932  2.568 1.000 1.00000 2.250 1.000      1.506  23.000
  596 2.290 1.968  2.612 1.000 1.00000 2.290 1.000      6.212  23.000
  597 2.240 1.922  2.558 1.000 1.00000 2.250 1.000      0.712  23.000
  598 2.310 1.986  2.634 1.000 1.00000 2.310 1.000     15.053  23.000
  599 2.230 1.913  2.547 1.000 1.00000 2.240 1.000      3.145  23.000
  600 2.300 1.977  2.623 1.000 1.00000 2.300 1.000     12.273  23.000
  601 2.440 2.103  2.777 1.000 1.00000 2.440 1.000     46.697  23.000
  602 2.240 1.922  2.558 1.000 1.00000 2.250 1.000      0.950  23.000
  603 2.260 1.941  2.579 1.000 1.00000 2.260 1.000      1.275  23.000
  604 2.310 1.986  2.634 1.000 1.00000 2.310 1.000     13.974  23.000
  605 2.250 1.932  2.568 1.000 1.00000 2.250 1.000      0.655  23.000
  606 2.220 1.904  2.536 1.000 1.00000 2.220 1.000      4.605  23.000
  607 2.440 2.103  2.777 1.000 1.00000 2.440 1.000     40.838  23.000
  608 2.260 1.941  2.579 1.000 1.00000 2.260 1.000      1.678  23.000
  609 2.250 1.932  2.568 1.000 1.00000 2.250 1.000      1.551  23.000
  610 2.150 1.841  2.459 1.000 1.00000 2.150 1.000     10.813  23.000
  611 2.250 1.932  2.568 1.000 1.00000 2.250 1.000      0.848  23.000
  612 2.230 1.913  2.547 1.000 1.00000 2.230 1.000      3.614  23.000
  613 2.250 1.932  2.568 1.000 1.00000 2.250 1.000      1.461  23.000
  614 2.230 1.913  2.547 1.000 1.00000 2.230 1.000      4.020  23.000
  615 2.190 1.877  2.503 1.000 1.00000 2.200 1.000      9.364  23.000
  616 2.260 1.941  2.579 1.000 1.00000 2.260 1.000      1.501  23.000
  617 2.250 1.932  2.568 1.000 1.00000 2.250 1.000      0.642  23.000
  618 2.280 1.959  2.601 1.000 1.00000 2.290 1.000      4.577  23.000
  619 2.220 1.904  2.536 1.000 1.00000 2.220 1.000      5.379  23.000
  620 2.240 1.922  2.558 1.000 1.00000 2.240 1.000      1.238  23.000
  621 2.270 1.950  2.590 1.000 1.00000 2.260 1.000      3.475  23.000
  622 2.250 1.932  2.568 1.000 1.00000 2.250 1.000      0.981  23.000
  623 2.260 1.941  2.579 1.000 1.00000 2.260 1.000      1.405  23.000
  624 2.150 1.841  2.459 1.000 1.00000 2.150 1.000     10.603  23.000
  625 2.150 1.841  2.459 1.000 1.00000 2.150 1.000     11.103  23.000
  626 2.230 1.913  2.547 1.000 1.00000 2.230 1.000      3.414  23.000
  627 2.260 1.941  2.579 1.000 1.00000 2.260 1.000      1.617  23.000
  628 2.300 1.977  2.623 1.000 1.00000 2.300 1.000     12.976  23.000
  629 2.250 1.932  2.568 1.000 1.00000 2.250 1.000      1.521  23.000
  630 2.150 1.841  2.459 1.000 1.00000 2.150 1.000      9.649  23.000
  631 2.260 1.941  2.579 1.000 1.00000 2.260 1.000      1.327  23.000
  632 2.230 1.913  2.547 1.000 1.00000 2.240 1.000      2.937  23.000
  633 2.240 1.922  2.558 1.000 1.00000 2.250 1.000      1.019  23.000
  634 2.260 1.941  2.579 1.000 1.00000 2.260 1.000      1.739  23.000
  635 2.270 1.950  2.590 1.000 1.00000 2.260 1.000      2.461  23.000
  636 2.270 1.950  2.590 1.000 1.00000 2.260 1.000      2.534  23.000
  637 2.300 1.977  2.623 1.000 1.00000 2.300 1.000     12.105  23.000
  638 2.260 1.941  2.579 1.000 1.00000 2.260 1.000      1.811  23.000
  639 2.220 1.904  2.536 1.000 1.00000 2.220 1.000      5.379  23.000
  640 2.260 1.941  2.579 1.000 1.00000 2.260 1.000      1.306  23.000
  641 2.240 1.922  2.558 1.000 1.00000 2.250 1.000      0.891  23.000
  642 2.210 1.895  2.525 1.000 1.00000 2.210 1.000      6.089  23.000
  643 2.310 1.986  2.634 1.000 1.00000 2.310 1.000     14.432  23.000
  644 2.240 1.922  2.558 1.000 1.00000 2.250 1.000      1.033  23.000
  645 2.210 1.895  2.525 1.000 1.00000 2.210 1.000      6.511  23.000
  646 2.260 1.941  2.579 1.000 1.00000 2.260 1.000      1.559  23.000
  647 2.250 1.932  2.568 1.000 1.00000 2.250 1.000      0.665  23.000
  648 2.240 1.922  2.558 1.000 1.00000 2.240 1.000      1.170  23.000
  649 2.320 1.995  2.645 1.000 1.00000 2.310 1.000     17.373  23.000
  650 2.250 1.932  2.568 1.000 1.00000 2.250 1.000      1.641  23.000
  651 2.300 1.977  2.623 1.000 1.00000 2.300 1.000     11.211  23.000
  652 2.260 1.941  2.579 1.000 1.00000 2.260 1.000      1.519  23.000
  653 2.240 1.922  2.558 1.000 1.00000 2.250 1.000      0.793  23.000
  654 2.260 1.941  2.579 1.000 1.00000 2.260 1.000      1.280  23.000
  655 2.230 1.913  2.547 1.000 1.00000 2.240 1.000      2.590  23.000
  656 2.310 1.986  2.634 1.000 1.00000 2.310 1.000     15.186  23.000
  657 2.310 1.986  2.634 1.000 1.00000 2.310 1.000     17.098  23.000
  658 2.190 1.877  2.503 1.000 1.00000 2.200 1.000      9.930  23.000
  659 2.300 1.977  2.623 1.000 1.00000 2.300 1.000     12.929  23.000
  660 2.300 1.977  2.623 1.000 1.00000 2.300 1.000      9.614  23.000
  661 2.150 1.841  2.459 1.000 1.00000 2.150 1.000      9.361  23.000
  662 2.220 1.904  2.536 1.000 1.00000 2.220 1.000      5.552  23.000
  663 2.240 1.922  2.558 1.000 1.00000 2.240 1.000      1.757  23.000
  664 2.220 1.904  2.536 1.000 1.00000 2.220 1.000      4.580  23.000
  665 2.250 1.932  2.568 1.000 1.00000 2.250 1.000      0.903  23.000
  666 2.250 1.932  2.568 1.000 1.00000 2.250 1.000      1.393  23.000
  667 2.260 1.941  2.579 1.000 1.00000 2.260 1.000      2.290  23.000
  668 2.200 1.886  2.514 1.000 1.00000 2.200 1.000      8.653  23.000
  669 2.250 1.932  2.568 1.000 1.00000 2.250 1.000      1.259  23.000
  670 2.260 1.941  2.579 1.000 1.00000 2.260 1.000      1.728  23.000
  671 2.260 1.941  2.579 1.000 1.00000 2.260 1.000      1.441  23.000
  672 2.280 1.959  2.601 1.000 1.00000 2.290 1.000      4.765  23.000
  673 2.250 1.932  2.568 1.000 1.00000 2.250 1.000      0.794  23.000
  674 2.230 1.913  2.547 1.000 1.00000 2.240 1.000      2.695  23.000
  675 2.260 1.941  2.579 1.000 1.00000 2.260 1.000      1.366  23.000
  676 2.240 1.922  2.558 1.000 1.00000 2.240 1.000      1.092  23.000
  677 2.260 1.941  2.579 1.000 1.00000 2.260 1.000      1.541  23.000
  678 2.370 2.040  2.700 1.000 1.00000 2.370 1.000     33.515  23.000
  679 2.230 1.913  2.547 1.000 1.00000 2.240 1.000      2.405  23.000
  680 2.270 1.950  2.590 1.000 1.00000 2.260 1.000      2.931  23.000
  681 2.240 1.922  2.558 1.000 1.00000 2.240 1.000      1.415  23.000
  682 2.250 1.932  2.568 1.000 1.00000 2.250 1.000      1.309  23.000
  683 2.150 1.841  2.459 1.000 1.00000 2.150 1.000     10.893  23.000
  684 2.240 1.922  2.558 1.000 1.00000 2.240 1.000      1.924  23.000
  685 2.240 1.922  2.558 1.000 1.00000 2.240 1.000      1.526  23.000
  686 2.280 1.959  2.601 1.000 1.00000 2.280 1.000      4.534  23.000
  687 2.310 1.986  2.634 1.000 1.00000 2.310 1.000     13.264  23.000
  688 2.270 1.950  2.590 1.000 1.00000 2.260 1.000      2.644  23.000
  689 2.290 1.968  2.612 1.000 1.00000 2.300 1.000      8.263  23.000
  690 2.260 1.941  2.579 1.000 1.00000 2.260 1.000      1.958  23.000
  691 2.180 1.868  2.492 1.000 1.00000 2.150 1.000     11.537  23.000
  692 2.200 1.886  2.514 1.000 1.00000 2.200 1.000      8.270  23.000
  693 2.150 1.841  2.459 1.000 1.00000 2.150 1.000     11.212  23.000
  694 2.460 2.121  2.799 1.000 1.00000 2.440 1.000     49.492  23.000
  695 2.280 1.959  2.601 1.000 1.00000 2.290 1.000      4.513  23.000
  696 2.240 1.922  2.558 1.000 1.00000 2.240 1.000      1.319  23.000
  697 2.150 1.841  2.459 1.000 1.00000 2.150 1.000     10.893  23.000
  698 2.310 1.986  2.634 1.000 1.00000 2.310 1.000     14.891  23.000
  699 2.230 1.913  2.547 1.000 1.00000 2.230 1.000      3.849  23.000
  700 2.230 1.913  2.547 1.000 1.00000 2.240 1.000      3.146  23.000
  701 2.330 2.004  2.656 1.000 1.00000 2.340 1.000     20.490  23.000
  702 2.440 2.103  2.777 1.000 1.00000 2.440 1.000     40.002  23.000
  703 2.250 1.932  2.568 1.000 1.00000 2.250 1.000      0.671  23.000
  704 2.240 1.922  2.558 1.000 1.00000 2.250 1.000      0.933  23.000
  705 2.290 1.968  2.612 1.000 1.00000 2.290 1.000      7.607  23.000
  706 2.370 2.040  2.700 1.000 1.00000 2.370 1.000     32.434  23.000
  707 2.290 1.968  2.612 1.000 1.00000 2.290 1.000      7.356  23.000
  708 2.360 2.031  2.689 1.000 1.00000 2.350 1.000     30.048  23.000
  709 2.260 1.941  2.579 1.000 1.00000 2.260 1.000      1.384  23.000
  710 2.200 1.886  2.514 1.000 1.00000 2.200 1.000      7.739  23.000
  711 2.260 1.941  2.579 1.000 1.00000 2.260 1.000      1.260  23.000
  712 2.250 1.932  2.568 1.000 1.00000 2.250 1.000      0.772  23.000
  713 2.210 1.895  2.525 1.000 1.00000 2.210 1.000      5.701  23.000
  714 2.230 1.913  2.547 1.000 1.00000 2.230 1.000      3.730  23.000
  715 2.260 1.941  2.579 1.000 1.00000 2.260 1.000      1.612  23.000
  716 2.270 1.950  2.590 1.000 1.00000 2.260 1.000      2.592  23.000
  717 2.250 1.932  2.568 1.000 1.00000 2.250 1.000      1.567  23.000
  718 2.220 1.904  2.536 1.000 1.00000 2.220 1.000      4.733  23.000
  719 2.290 1.968  2.612 1.000 1.00000 2.290 1.000      7.982  23.000
  720 2.270 1.950  2.590 1.000 1.00000 2.260 1.000      3.234  23.000
  721 2.210 1.895  2.525 1.000 1.00000 2.210 1.000      5.779  23.000
  722 2.170 1.859  2.481 1.000 1.00000 2.150 1.000     11.418  23.000
  723 2.280 1.959  2.601 1.000 1.00000 2.290 1.000      4.594  23.000
  724 2.310 1.986  2.634 1.000 1.00000 2.310 1.000     14.490  23.000
  725 2.480 2.139  2.821 1.000 1.00000 2.480 1.000     50.996  23.000
  726 2.150 1.841  2.459 1.000 1.00000 2.150 1.000     11.103  23.000
  727 2.260 1.941  2.579 1.000 1.00000 2.260 1.000      1.960  23.000
  728 2.300 1.977  2.623 1.000 1.00000 2.300 1.000     10.355  23.000
  729 2.240 1.922  2.558 1.000 1.00000 2.240 1.000      1.610  23.000
  730 2.250 1.932  2.568 1.000 1.00000 2.250 1.000      0.640  23.000
  731 2.210 1.895  2.525 1.000 1.00000 2.210 1.000      6.661  23.000
  732 2.300 1.977  2.623 1.000 1.00000 2.300 1.000     10.386  23.000
  733 2.440 2.103  2.777 1.000 1.00000 2.440 1.000     42.811  23.000
  734 2.250 1.932  2.568 1.000 1.00000 2.250 1.000      0.639  23.000
  735 2.150 1.841  2.459 1.000 1.00000 2.150 1.000      9.827  23.000
  736 2.290 1.968  2.612 1.000 1.00000 2.290 1.000      6.186  23.000
  737 2.250 1.932  2.568 1.000 1.00000 2.250 1.000      0.641  23.000
  738 2.240 1.922  2.558 1.000 1.00000 2.240 1.000      2.055  23.000
  739 2.230 1.913  2.547 1.000 1.00000 2.240 1.000      2.914  23.000
  740 2.220 1.904  2.536 1.000 1.00000 2.230 1.000      4.146  23.000
  741 2.230 1.913  2.547 1.000 1.00000 2.240 1.000      2.608  23.000
  742 2.230 1.913  2.547 1.000 1.00000 2.240 1.000      2.914  23.000
  743 2.240 1.922  2.558 1.000 1.00000 2.240 1.000      1.676  23.000
  744 2.150 1.841  2.459 1.000 1.00000 2.150 1.000      9.539  23.000
  745 2.250 1.932  2.568 1.000 1.00000 2.250 1.000      0.742  23.000
  746 2.260 1.941  2.579 1.000 1.00000 2.260 1.000      1.634  23.000
  747 2.260 1.941  2.579 1.000 1.00000 2.260 1.000      1.783  23.000
  748 2.260 1.941  2.579 1.000 1.00000 2.260 1.000      1.563  23.000
  749 2.210 1.895  2.525 1.000 1.00000 2.210 1.000      6.720  23.000
  750 2.260 1.941  2.579 1.000 1.00000 2.260 1.000      1.237  23.000
  751 2.200 1.886  2.514 1.000 1.00000 2.200 1.000      8.561  23.000
  752 2.240 1.922  2.558 1.000 1.00000 2.250 1.000      0.762  23.000
  753 2.240 1.922  2.558 1.000 1.00000 2.240 1.000      2.250  23.000
  754 2.240 1.922  2.558 1.000 1.00000 2.250 1.000      0.804  23.000
  755 2.290 1.968  2.612 1.000 1.00000 2.290 1.000      5.695  23.000
  756 2.220 1.904  2.536 1.000 1.00000 2.230 1.000      4.197  23.000
  757 2.250 1.932  2.568 1.000 1.00000 2.250 1.000      1.116  23.000
  758 2.280 1.959  2.601 1.000 1.00000 2.280 1.000      4.224  23.000
  759 2.270 1.950  2.590 1.000 1.00000 2.260 1.000      3.344  23.000
  760 2.150 1.841  2.459 1.000 1.00000 2.150 1.000      9.531  23.000
  761 2.260 1.941  2.579 1.000 1.00000 2.260 1.000      1.255  23.000
  762 2.260 1.941  2.579 1.000 1.00000 2.260 1.000      1.572  23.000
  763 2.240 1.922  2.558 1.000 1.00000 2.250 1.000      0.853  23.000
  764 2.280 1.959  2.601 1.000 1.00000 2.280 1.000      4.425  23.000
  765 2.240 1.922  2.558 1.000 1.00000 2.240 1.000      1.043  23.000
  766 2.210 1.895  2.525 1.000 1.00000 2.200 1.000      7.305  23.000
  767 2.310 1.986  2.634 1.000 1.00000 2.310 1.000     15.963  23.000
  768 2.260 1.941  2.579 1.000 1.00000 2.260 1.000      1.823  23.000
  769 2.290 1.968  2.612 1.000 1.00000 2.290 1.000      6.052  23.000
  770 2.310 1.986  2.634 1.000 1.00000 2.310 1.000     14.779  23.000
  771 2.260 1.941  2.579 1.000 1.00000 2.260 1.000      1.286  23.000
  772 2.190 1.877  2.503 1.000 1.00000 2.200 1.000      9.586  23.000
  773 2.280 1.959  2.601 1.000 1.00000 2.290 1.000      4.793  23.000
  774 2.300 1.977  2.623 1.000 1.00000 2.300 1.000     11.451  23.000
  775 2.270 1.950  2.590 1.000 1.00000 2.260 1.000      2.630  23.000
  776 2.250 1.932  2.568 1.000 1.00000 2.250 1.000      1.551  23.000
  777 2.270 1.950  2.590 1.000 1.00000 2.260 1.000      3.206  23.000
  778 2.150 1.841  2.459 1.000 1.00000 2.150 1.000     10.247  23.000
  779 2.290 1.968  2.612 1.000 1.00000 2.290 1.000      6.053  23.000
  780 2.150 1.841  2.459 1.000 1.00000 2.150 1.000     10.955  23.000
  781 2.220 1.904  2.536 1.000 1.00000 2.220 1.000      4.386  23.000
  782 2.190 1.877  2.503 1.000 1.00000 2.190 1.000     10.348  23.000
  783 2.280 1.959  2.601 1.000 1.00000 2.290 1.000      4.779  23.000
  784 2.240 1.922  2.558 1.000 1.00000 2.240 1.000      1.323  23.000
  785 2.350 2.022  2.678 1.000 1.00000 2.350 1.000     26.476  23.000
  786 2.240 1.922  2.558 1.000 1.00000 2.240 1.000      1.467  23.000
  787 2.220 1.904  2.536 1.000 1.00000 2.220 1.000      4.706  23.000
  788 2.280 1.959  2.601 1.000 1.00000 2.280 1.000      4.405  23.000
  789 2.270 1.950  2.590 1.000 1.00000 2.260 1.000      2.391  23.000
  790 2.200 1.886  2.514 1.000 1.00000 2.200 1.000      8.796  23.000
  791 2.230 1.913  2.547 1.000 1.00000 2.240 1.000      2.567  23.000
  792 2.220 1.904  2.536 1.000 1.00000 2.220 1.000      4.245  23.000
  793 2.260 1.941  2.579 1.000 1.00000 2.260 1.000      1.863  23.000
  794 2.270 1.950  2.590 1.000 1.00000 2.260 1.000      3.609  23.000
  795 2.250 1.932  2.568 1.000 1.00000 2.250 1.000      0.683  23.000
  796 2.210 1.895  2.525 1.000 1.00000 2.220 1.000      5.779  23.000
  797 2.230 1.913  2.547 1.000 1.00000 2.240 1.000      2.631  23.000
  798 2.240 1.922  2.558 1.000 1.00000 2.250 1.000      0.933  23.000
  799 2.260 1.941  2.579 1.000 1.00000 2.260 1.000      1.386  23.000
  800 2.150 1.841  2.459 1.000 1.00000 2.150 1.000      9.348  23.000
  801 2.260 1.941  2.579 1.000 1.00000 2.260 1.000      1.848  23.000
  802 2.240 1.922  2.558 1.000 1.00000 2.240 1.000      1.070  23.000
  803 2.260 1.941  2.579 1.000 1.00000 2.260 1.000      1.773  23.000
  804 2.290 1.968  2.612 1.000 1.00000 2.290 1.000      6.027  23.000
  805 2.240 1.922  2.558 1.000 1.00000 2.250 1.000      0.883  23.000
  806 2.230 1.913  2.547 1.000 1.00000 2.240 1.000      2.958  23.000
  807 2.280 1.959  2.601 1.000 1.00000 2.290 1.000      5.227  23.000
  808 2.160 1.850  2.470 1.000 1.00000 2.150 1.000     11.257  23.000
  809 2.240 1.922  2.558 1.000 1.00000 2.250 1.000      0.811  23.000
  810 2.240 1.922  2.558 1.000 1.00000 2.240 1.000      1.644  23.000
  811 2.260 1.941  2.579 1.000 1.00000 2.260 1.000      1.548  23.000
  812 2.190 1.877  2.503 1.000 1.00000 2.200 1.000      9.930  23.000
  813 2.250 1.932  2.568 1.000 1.00000 2.250 1.000      0.690  23.000
  814 2.220 1.904  2.536 1.000 1.00000 2.230 1.000      4.172  23.000
  815 2.220 1.904  2.536 1.000 1.00000 2.220 1.000      4.294  23.000
  816 2.250 1.932  2.568 1.000 1.00000 2.250 1.000      1.296  23.000
  817 2.210 1.895  2.525 1.000 1.00000 2.210 1.000      6.500  23.000
  818 2.150 1.841  2.459 1.000 1.00000 2.150 1.000      9.804  23.000
  819 2.280 1.959  2.601 1.000 1.00000 2.290 1.000      4.760  23.000
  820 2.240 1.922  2.558 1.000 1.00000 2.240 1.000      1.238  23.000
  821 2.280 1.959  2.601 1.000 1.00000 2.290 1.000      4.722  23.000
  822 2.250 1.932  2.568 1.000 1.00000 2.250 1.000      0.742  23.000
  823 2.260 1.941  2.579 1.000 1.00000 2.260 1.000      1.380  23.000
  824 2.260 1.941  2.579 1.000 1.00000 2.260 1.000      1.310  23.000
  825 2.250 1.932  2.568 1.000 1.00000 2.250 1.000      0.674  23.000
  826 2.260 1.941  2.579 1.000 1.00000 2.260 1.000      1.327  23.000
  827 2.290 1.968  2.612 1.000 1.00000 2.290 1.000      5.744  23.000
  828 2.150 1.841  2.459 1.000 1.00000 2.150 1.000     11.186  23.000
  829 2.270 1.950  2.590 1.000 1.00000 2.260 1.000      2.569  23.000
  830 2.230 1.913  2.547 1.000 1.00000 2.240 1.000      2.428  23.000
  831 2.250 1.932  2.568 1.000 1.00000 2.250 1.000      0.791  23.000
  832 2.220 1.904  2.536 1.000 1.00000 2.220 1.000      4.362  23.000
  833 2.260 1.941  2.579 1.000 1.00000 2.260 1.000      1.242  23.000
  834 2.230 1.913  2.547 1.000 1.00000 2.240 1.000      2.825  23.000
  835 2.250 1.932  2.568 1.000 1.00000 2.250 1.000      1.184  23.000
  836 2.240 1.922  2.558 1.000 1.00000 2.240 1.000      1.118  23.000
  837 2.280 1.959  2.601 1.000 1.00000 2.290 1.000      5.055  23.000
  838 2.260 1.941  2.579 1.000 1.00000 2.260 1.000      1.745  23.000
  839 2.310 1.986  2.634 1.000 1.00000 2.310 1.000     16.085  23.000
  840 2.250 1.932  2.568 1.000 1.00000 2.250 1.000      1.030  23.000
  841 2.250 1.932  2.568 1.000 1.00000 2.250 1.000      0.669  23.000
  842 2.250 1.932  2.568 1.000 1.00000 2.250 1.000      1.149  23.000
  843 2.210 1.895  2.525 1.000 1.00000 2.210 1.000      6.503  23.000
  844 2.230 1.913  2.547 1.000 1.00000 2.230 1.000      3.480  23.000
  845 2.250 1.932  2.568 1.000 1.00000 2.250 1.000      0.640  23.000
  846 2.230 1.913  2.547 1.000 1.00000 2.240 1.000      2.847  23.000
  847 2.340 2.013  2.667 1.000 1.00000 2.340 1.000     24.109  23.000
  848 2.240 1.922  2.558 1.000 1.00000 2.240 1.000      2.213  23.000
  849 2.260 1.941  2.579 1.000 1.00000 2.260 1.000      1.457  23.000
  850 2.260 1.941  2.579 1.000 1.00000 2.260 1.000      1.820  23.000
  851 2.300 1.977  2.623 1.000 1.00000 2.300 1.000      8.936  23.000
  852 2.260 1.941  2.579 1.000 1.00000 2.260 1.000      1.812  23.000
  853 2.200 1.886  2.514 1.000 1.00000 2.200 1.000      8.554  23.000
  854 2.260 1.941  2.579 1.000 1.00000 2.260 1.000      1.325  23.000
  855 2.300 1.977  2.623 1.000 1.00000 2.300 1.000     11.680  23.000
  856 2.240 1.922  2.558 1.000 1.00000 2.240 1.000      2.007  23.000
  857 2.260 1.941  2.579 1.000 1.00000 2.260 1.000      1.251  23.000
  858 2.340 2.013  2.667 1.000 1.00000 2.350 1.000     25.148  23.000
  859 2.280 1.959  2.601 1.000 1.00000 2.280 1.000      4.534  23.000
  860 2.260 1.941  2.579 1.000 1.00000 2.260 1.000      1.251  23.000
  861 2.320 1.995  2.645 1.000 1.00000 2.310 1.000     17.784  23.000
  862 2.350 2.022  2.678 1.000 1.00000 2.350 1.000     26.752  23.000
  863 2.250 1.932  2.568 1.000 1.00000 2.250 1.000      0.654  23.000
  864 2.250 1.932  2.568 1.000 1.00000 2.250 1.000      0.620  23.000
  865 2.260 1.941  2.579 1.000 1.00000 2.260 1.000      1.315  23.000
  866 2.260 1.941  2.579 1.000 1.00000 2.260 1.000      1.266  23.000
  867 2.240 1.922  2.558 1.000 1.00000 2.240 1.000      1.439  23.000
  868 2.250 1.932  2.568 1.000 1.00000 2.250 1.000      0.665  23.000
  869 2.270 1.950  2.590 1.000 1.00000 2.260 1.000      3.568  23.000
  870 2.260 1.941  2.579 1.000 1.00000 2.260 1.000      1.395  23.000
  871 2.250 1.932  2.568 1.000 1.00000 2.250 1.000      1.270  23.000
  872 2.220 1.904  2.536 1.000 1.00000 2.220 1.000      4.808  23.000
  873 2.230 1.913  2.547 1.000 1.00000 2.230 1.000      3.458  23.000
  874 2.190 1.877  2.503 1.000 1.00000 2.190 1.000     10.395  23.000
  875 2.250 1.932  2.568 1.000 1.00000 2.250 1.000      0.635  23.000
  876 2.250 1.932  2.568 1.000 1.00000 2.250 1.000      0.705  23.000
  877 2.250 1.932  2.568 1.000 1.00000 2.250 1.000      0.651  23.000
  878 2.270 1.950  2.590 1.000 1.00000 2.260 1.000      2.647  23.000
  879 2.150 1.841  2.459 1.000 1.00000 2.150 1.000      9.329  23.000
  880 2.230 1.913  2.547 1.000 1.00000 2.230 1.000      3.480  23.000
  881 2.270 1.950  2.590 1.000 1.00000 2.260 1.000      3.641  23.000
  882 2.250 1.932  2.568 1.000 1.00000 2.250 1.000      1.678  23.000
  883 2.240 1.922  2.558 1.000 1.00000 2.240 1.000      2.125  23.000
  884 2.250 1.932  2.568 1.000 1.00000 2.250 1.000      0.629  23.000
  885 2.190 1.877  2.503 1.000 1.00000 2.190 1.000     10.704  23.000
  886 2.260 1.941  2.579 1.000 1.00000 2.260 1.000      1.251  23.000
  887 2.240 1.922  2.558 1.000 1.00000 2.250 1.000      0.773  23.000
  888 2.250 1.932  2.568 1.000 1.00000 2.250 1.000      0.686  23.000
  889 2.230 1.913  2.547 1.000 1.00000 2.240 1.000      3.146  23.000
  890 2.210 1.895  2.525 1.000 1.00000 2.210 1.000      5.759  23.000
  891 2.180 1.868  2.492 1.000 1.00000 2.180 1.000     11.241  23.000
  892 2.270 1.950  2.590 1.000 1.00000 2.260 1.000      3.605  23.000
  893 2.230 1.913  2.547 1.000 1.00000 2.240 1.000      2.487  23.000
  894 2.250 1.932  2.568 1.000 1.00000 2.250 1.000      0.688  23.000
  895 2.190 1.877  2.503 1.000 1.00000 2.190 1.000     10.510  23.000
  896 2.260 1.941  2.579 1.000 1.00000 2.260 1.000      2.209  23.000
  897 2.220 1.904  2.536 1.000 1.00000 2.220 1.000      5.100  23.000
  898 2.240 1.922  2.558 1.000 1.00000 2.240 1.000      1.419  23.000
  899 2.300 1.977  2.623 1.000 1.00000 2.300 1.000     11.532  23.000
  900 2.210 1.895  2.525 1.000 1.00000 2.210 1.000      6.779  23.000
  901 2.250 1.932  2.568 1.000 1.00000 2.250 1.000      0.705  23.000
  902 2.300 1.977  2.623 1.000 1.00000 2.300 1.000      9.436  23.000
  903 2.250 1.932  2.568 1.000 1.00000 2.250 1.000      0.650  23.000
  904 2.200 1.886  2.514 1.000 1.00000 2.200 1.000      7.485  23.000
  905 2.260 1.941  2.579 1.000 1.00000 2.260 1.000      1.246  23.000
  906 2.250 1.932  2.568 1.000 1.00000 2.250 1.000      0.678  23.000
  907 2.200 1.886  2.514 1.000 1.00000 2.200 1.000      7.968  23.000
  908 2.150 1.841  2.459 1.000 1.00000 2.150 1.000      9.419  23.000
  909 2.250 1.932  2.568 1.000 1.00000 2.250 1.000      1.796  23.000
  910 2.310 1.986  2.634 1.000 1.00000 2.310 1.000     14.490  23.000
  911 2.300 1.977  2.623 1.000 1.00000 2.300 1.000     11.569  23.000
  912 2.300 1.977  2.623 1.000 1.00000 2.300 1.000     12.945  23.000
  913 2.220 1.904  2.536 1.000 1.00000 2.220 1.000      5.127  23.000
  914 2.240 1.922  2.558 1.000 1.00000 2.250 1.000      0.950  23.000
  915 2.250 1.932  2.568 1.000 1.00000 2.250 1.000      0.738  23.000
  916 2.290 1.968  2.612 1.000 1.00000 2.290 1.000      7.574  23.000
  917 2.270 1.950  2.590 1.000 1.00000 2.260 1.000      2.554  23.000
  918 2.240 1.922  2.558 1.000 1.00000 2.240 1.000      1.340  23.000
  919 2.250 1.932  2.568 1.000 1.00000 2.250 1.000      1.051  23.000
  920 2.220 1.904  2.536 1.000 1.00000 2.220 1.000      5.379  23.000
  921 2.270 1.950  2.590 1.000 1.00000 2.260 1.000      2.627  23.000
  922 2.200 1.886  2.514 1.000 1.00000 2.200 1.000      8.589  23.000
  923 2.220 1.904  2.536 1.000 1.00000 2.230 1.000      4.254  23.000
  924 2.270 1.950  2.590 1.000 1.00000 2.260 1.000      2.722  23.000
  925 2.150 1.841  2.459 1.000 1.00000 2.150 1.000      9.435  23.000
  926 2.270 1.950  2.590 1.000 1.00000 2.260 1.000      2.966  23.000
  927 2.290 1.968  2.612 1.000 1.00000 2.290 1.000      5.408  23.000
  928 2.230 1.913  2.547 1.000 1.00000 2.240 1.000      2.759  23.000
  929 2.350 2.022  2.678 1.000 1.00000 2.350 1.000     25.190  23.000
  930 2.220 1.904  2.536 1.000 1.00000 2.220 1.000      4.222  23.000
  931 2.290 1.968  2.612 1.000 1.00000 2.290 1.000      5.574  23.000
  932 2.240 1.922  2.558 1.000 1.00000 2.250 1.000      0.853  23.000
  933 2.260 1.941  2.579 1.000 1.00000 2.260 1.000      1.266  23.000
  934 2.200 1.886  2.514 1.000 1.00000 2.200 1.000      7.707  23.000
  935 2.260 1.941  2.579 1.000 1.00000 2.260 1.000      1.339  23.000
  936 2.230 1.913  2.547 1.000 1.00000 2.230 1.000      3.897  23.000
  937 2.150 1.841  2.459 1.000 1.00000 2.150 1.000      9.319  23.000
  938 2.250 1.932  2.568 1.000 1.00000 2.250 1.000      0.745  23.000
  939 2.310 1.986  2.634 1.000 1.00000 2.310 1.000     16.612  23.000
  940 2.260 1.941  2.579 1.000 1.00000 2.260 1.000      2.055  23.000
  941 2.240 1.922  2.558 1.000 1.00000 2.250 1.000      0.971  23.000
  942 2.280 1.959  2.601 1.000 1.00000 2.290 1.000      5.010  23.000
  943 2.150 1.841  2.459 1.000 1.00000 2.150 1.000     10.300  23.000
  944 2.290 1.968  2.612 1.000 1.00000 2.290 1.000      6.186  23.000
  945 2.230 1.913  2.547 1.000 1.00000 2.240 1.000      2.914  23.000
  946 2.250 1.932  2.568 1.000 1.00000 2.250 1.000      0.642  23.000
  947 2.260 1.941  2.579 1.000 1.00000 2.260 1.000      1.315  23.000
  948 2.250 1.932  2.568 1.000 1.00000 2.250 1.000      1.756  23.000
  949 2.250 1.932  2.568 1.000 1.00000 2.250 1.000      0.714  23.000
  950 2.280 1.959  2.601 1.000 1.00000 2.280 1.000      4.180  23.000
  951 2.250 1.932  2.568 1.000 1.00000 2.250 1.000      0.654  23.000
  952 2.250 1.932  2.568 1.000 1.00000 2.250 1.000      1.185  23.000
  953 2.260 1.941  2.579 1.000 1.00000 2.260 1.000      1.654  23.000
  954 2.240 1.922  2.558 1.000 1.00000 2.240 1.000      1.070  23.000
  955 2.260 1.941  2.579 1.000 1.00000 2.260 1.000      1.674  23.000
  956 2.230 1.913  2.547 1.000 1.00000 2.240 1.000      2.546  23.000
  957 2.260 1.941  2.579 1.000 1.00000 2.260 1.000      1.542  23.000
  958 2.490 2.148  2.832 1.000 1.00000 2.480 1.000     54.794  23.000
  959 2.370 2.040  2.700 1.000 1.00000 2.370 1.000     34.015  23.000
  960 2.240 1.922  2.558 1.000 1.00000 2.240 1.000      1.336  23.000
  961 2.300 1.977  2.623 1.000 1.00000 2.300 1.000     11.168  23.000
  962 2.250 1.932  2.568 1.000 1.00000 2.250 1.000      1.544  23.000
  963 2.260 1.941  2.579 1.000 1.00000 2.260 1.000      1.785  23.000
  964 2.270 1.950  2.590 1.000 1.00000 2.260 1.000      2.287  23.000
  965 2.200 1.886  2.514 1.000 1.00000 2.200 1.000      9.162  23.000
  966 2.260 1.941  2.579 1.000 1.00000 2.260 1.000      1.384  23.000
  967 2.230 1.913  2.547 1.000 1.00000 2.240 1.000      3.341  23.000
  968 2.300 1.977  2.623 1.000 1.00000 2.300 1.000     12.597  23.000
  969 2.300 1.977  2.623 1.000 1.00000 2.300 1.000      9.835  23.000
  970 2.220 1.904  2.536 1.000 1.00000 2.220 1.000      5.467  23.000
  971 2.250 1.932  2.568 1.000 1.00000 2.250 1.000      1.160  23.000
  972 2.210 1.895  2.525 1.000 1.00000 2.200 1.000      7.119  23.000
  973 2.310 1.986  2.634 1.000 1.00000 2.310 1.000     14.827  23.000
  974 2.340 2.013  2.667 1.000 1.00000 2.340 1.000     22.791  23.000
  975 2.440 2.103  2.777 1.000 1.00000 2.440 1.000     37.925  23.000
  976 2.240 1.922  2.558 1.000 1.00000 2.250 1.000      0.839  23.000
  977 2.230 1.913  2.547 1.000 1.00000 2.240 1.000      3.146  23.000
  978 2.280 1.959  2.601 1.000 1.00000 2.290 1.000      5.058  23.000
  979 2.240 1.922  2.558 1.000 1.00000 2.240 1.000      1.579  23.000
  980 2.240 1.922  2.558 1.000 1.00000 2.240 1.000      1.860  23.000
  981 2.310 1.986  2.634 1.000 1.00000 2.310 1.000     16.400  23.000
  982 2.290 1.968  2.612 1.000 1.00000 2.290 1.000      5.922  23.000
  983 2.260 1.941  2.579 1.000 1.00000 2.260 1.000      1.762  23.000
  984 2.250 1.932  2.568 1.000 1.00000 2.250 1.000      0.640  23.000
  985 2.230 1.913  2.547 1.000 1.00000 2.230 1.000      3.547  23.000
  986 2.250 1.932  2.568 1.000 1.00000 2.250 1.000      0.991  23.000
  987 2.220 1.904  2.536 1.000 1.00000 2.220 1.000      5.073  23.000
  988 2.200 1.886  2.514 1.000 1.00000 2.200 1.000      8.941  23.000
  989 2.230 1.913  2.547 1.000 1.00000 2.230 1.000      3.458  23.000
  990 2.290 1.968  2.612 1.000 1.00000 2.290 1.000      7.875  23.000
  991 2.210 1.895  2.525 1.000 1.00000 2.210 1.000      6.914  23.000
  992 2.250 1.932  2.568 1.000 1.00000 2.250 1.000      1.376  23.000
  993 2.250 1.932  2.568 1.000 1.00000 2.250 1.000      0.607  23.000
  994 2.260 1.941  2.579 1.000 1.00000 2.260 1.000      1.720  23.000
  995 2.280 1.959  2.601 1.000 1.00000 2.280 1.000      4.303  23.000
  996 2.240 1.922  2.558 1.000 1.00000 2.240 1.000      1.196  23.000
  997 2.300 1.977  2.623 1.000 1.00000 2.300 1.000     11.746  23.000
  998 2.250 1.932  2.568 1.000 1.00000 2.250 1.000      0.631  23.000
  999 2.230 1.913  2.547 1.000 1.00000 2.230 1.000      3.458  23.000
 1000 2.230 1.913  2.547 1.000 1.00000 2.230 1.000      3.971  23.000
 1001 2.240 1.922  2.558 1.000 1.00000 2.240 1.000      1.505  23.000
 1002 2.150 1.841  2.459 1.000 1.00000 2.150 1.000     11.168  23.000
 1003 2.260 1.941  2.579 1.000 1.00000 2.260 1.000      1.318  23.000
 1004 2.330 2.004  2.656 1.000 1.00000 2.320 1.000     20.123  23.000
 1005 2.250 1.932  2.568 1.000 1.00000 2.250 1.000      0.954  23.000
 1006 2.240 1.922  2.558 1.000 1.00000 2.240 1.000      1.798  23.000
 1007 2.290 1.968  2.612 1.000 1.00000 2.290 1.000      8.131  23.000
 1008 2.260 1.941  2.579 1.000 1.00000 2.260 1.000      1.231  23.000
 1009 2.250 1.932  2.568 1.000 1.00000 2.250 1.000      0.731  23.000
 1010 2.200 1.886  2.514 1.000 1.00000 2.200 1.000      8.333  23.000
 1011 2.260 1.941  2.579 1.000 1.00000 2.260 1.000      1.539  23.000
 1012 2.230 1.913  2.547 1.000 1.00000 2.230 1.000      3.873  23.000
 1013 2.240 1.922  2.558 1.000 1.00000 2.250 1.000      0.906  23.000
 1014 2.240 1.922  2.558 1.000 1.00000 2.240 1.000      1.651  23.000
 1015 2.330 2.004  2.656 1.000 1.00000 2.340 1.000     22.119  23.000
 1016 2.260 1.941  2.579 1.000 1.00000 2.260 1.000      1.438  23.000
 1017 2.260 1.941  2.579 1.000 1.00000 2.260 1.000      1.299  23.000
 1018 2.250 1.932  2.568 1.000 1.00000 2.250 1.000      1.261  23.000
 1019 2.250 1.932  2.568 1.000 1.00000 2.250 1.000      0.718  23.000
 1020 2.230 1.913  2.547 1.000 1.00000 2.240 1.000      2.505  23.000
 1021 2.230 1.913  2.547 1.000 1.00000 2.240 1.000      3.267  23.000
 1022 2.250 1.932  2.568 1.000 1.00000 2.250 1.000      0.981  23.000
 1023 2.150 1.841  2.459 1.000 1.00000 2.150 1.000      9.316  23.000
 1024 2.200 1.886  2.514 1.000 1.00000 2.200 1.000      7.511  23.000
 1025 2.240 1.922  2.558 1.000 1.00000 2.240 1.000      1.782  23.000
 1026 2.370 2.040  2.700 1.000 1.00000 2.370 1.000     32.434  23.000
 1027 2.220 1.904  2.536 1.000 1.00000 2.220 1.000      4.580  23.000
 1028 2.260 1.941  2.579 1.000 1.00000 2.260 1.000      1.602  23.000
 1029 2.230 1.913  2.547 1.000 1.00000 2.230 1.000      3.458  23.000
 1030 2.240 1.922  2.558 1.000 1.00000 2.250 1.000      0.736  23.000
 1031 2.240 1.922  2.558 1.000 1.00000 2.240 1.000      1.990  23.000
 1032 2.260 1.941  2.579 1.000 1.00000 2.260 1.000      2.032  23.000
 1033 2.270 1.950  2.590 1.000 1.00000 2.260 1.000      2.644  23.000
 1034 2.220 1.904  2.536 1.000 1.00000 2.220 1.000      4.483  23.000
 1035 2.240 1.922  2.558 1.000 1.00000 2.240 1.000      1.126  23.000
 1036 2.230 1.913  2.547 1.000 1.00000 2.240 1.000      3.292  23.000
 1037 2.240 1.922  2.558 1.000 1.00000 2.240 1.000      1.730  23.000
 1038 2.250 1.932  2.568 1.000 1.00000 2.250 1.000      0.641  23.000
 1039 2.310 1.986  2.634 1.000 1.00000 2.310 1.000     16.207  23.000
 1040 2.170 1.859  2.481 1.000 1.00000 2.150 1.000     11.489  23.000
 1041 2.250 1.932  2.568 1.000 1.00000 2.250 1.000      0.663  23.000
 1042 2.260 1.941  2.579 1.000 1.00000 2.260 1.000      1.225  23.000
 1043 2.210 1.895  2.525 1.000 1.00000 2.210 1.000      6.150  23.000
 1044 2.230 1.913  2.547 1.000 1.00000 2.240 1.000      2.849  23.000
 1045 2.270 1.950  2.590 1.000 1.00000 2.260 1.000      2.624  23.000
 1046 2.280 1.959  2.601 1.000 1.00000 2.290 1.000      4.832  23.000
 1047 2.250 1.932  2.568 1.000 1.00000 2.250 1.000      0.740  23.000
 1048 2.210 1.895  2.525 1.000 1.00000 2.210 1.000      5.946  23.000
 1049 2.150 1.841  2.459 1.000 1.00000 2.150 1.000      9.509  23.000
 1050 2.250 1.932  2.568 1.000 1.00000 2.250 1.000      0.628  23.000
 1051 2.260 1.941  2.579 1.000 1.00000 2.260 1.000      1.250  23.000
 1052 2.250 1.932  2.568 1.000 1.00000 2.250 1.000      1.412  23.000
 1053 2.250 1.932  2.568 1.000 1.00000 2.250 1.000      0.632  23.000
 1054 2.300 1.977  2.623 1.000 1.00000 2.300 1.000      8.759  23.000
 1055 2.250 1.932  2.568 1.000 1.00000 2.250 1.000      0.864  23.000
 1056 2.260 1.941  2.579 1.000 1.00000 2.260 1.000      1.298  23.000
 1057 2.220 1.904  2.536 1.000 1.00000 2.220 1.000      5.414  23.000
 1058 2.260 1.941  2.579 1.000 1.00000 2.260 1.000      1.434  23.000
 1059 2.240 1.922  2.558 1.000 1.00000 2.240 1.000      1.480  23.000
 1060 2.260 1.941  2.579 1.000 1.00000 2.260 1.000      1.970  23.000
 1061 2.250 1.932  2.568 1.000 1.00000 2.250 1.000      0.644  23.000
 1062 2.270 1.950  2.590 1.000 1.00000 2.260 1.000      3.463  23.000
 1063 2.250 1.932  2.568 1.000 1.00000 2.250 1.000      0.625  23.000
 1064 2.190 1.877  2.503 1.000 1.00000 2.200 1.000      9.433  23.000
 1065 2.290 1.968  2.612 1.000 1.00000 2.290 1.000      5.406  23.000
 1066 2.350 2.022  2.678 1.000 1.00000 2.350 1.000     26.186  23.000
 1067 2.320 1.995  2.645 1.000 1.00000 2.320 1.000     19.803  23.000
 1068 2.190 1.877  2.503 1.000 1.00000 2.200 1.000      9.579  23.000
 1069 2.250 1.932  2.568 1.000 1.00000 2.250 1.000      0.663  23.000
 1070 2.240 1.922  2.558 1.000 1.00000 2.250 1.000      0.825  23.000
 1071 2.260 1.941  2.579 1.000 1.00000 2.260 1.000      1.460  23.000
 1072 2.260 1.941  2.579 1.000 1.00000 2.260 1.000      1.276  23.000
 1073 2.250 1.932  2.568 1.000 1.00000 2.250 1.000      0.715  23.000
 1074 2.250 1.932  2.568 1.000 1.00000 2.250 1.000      0.675  23.000
 1075 2.250 1.932  2.568 1.000 1.00000 2.250 1.000      0.646  23.000
 1076 2.300 1.977  2.623 1.000 1.00000 2.300 1.000     11.365  23.000
 1077 2.250 1.932  2.568 1.000 1.00000 2.250 1.000      0.640  23.000
 1078 2.240 1.922  2.558 1.000 1.00000 2.240 1.000      1.752  23.000
 1079 2.200 1.886  2.514 1.000 1.00000 2.200 1.000      8.731  23.000
 1080 2.310 1.986  2.634 1.000 1.00000 2.310 1.000     16.340  23.000
 1081 2.240 1.922  2.558 1.000 1.00000 2.240 1.000      1.136  23.000
 1082 2.260 1.941  2.579 1.000 1.00000 2.260 1.000      1.494  23.000
 1083 2.190 1.877  2.503 1.000 1.00000 2.200 1.000     10.089  23.000
 1084 2.260 1.941  2.579 1.000 1.00000 2.260 1.000      1.395  23.000
 1085 2.240 1.922  2.558 1.000 1.00000 2.240 1.000      2.411  23.000
 1086 2.250 1.932  2.568 1.000 1.00000 2.250 1.000      0.654  23.000
 1087 2.260 1.941  2.579 1.000 1.00000 2.260 1.000      1.452  23.000
 1088 2.260 1.941  2.579 1.000 1.00000 2.260 1.000      1.289  23.000
 1089 2.250 1.932  2.568 1.000 1.00000 2.250 1.000      1.127  23.000
 1090 2.260 1.941  2.579 1.000 1.00000 2.260 1.000      1.306  23.000
 1091 2.250 1.932  2.568 1.000 1.00000 2.250 1.000      1.808  23.000
 1092 2.290 1.968  2.612 1.000 1.00000 2.290 1.000      6.159  23.000
 1093 2.250 1.932  2.568 1.000 1.00000 2.250 1.000      0.846  23.000
 1094 2.250 1.932  2.568 1.000 1.00000 2.250 1.000      0.637  23.000
 1095 2.260 1.941  2.579 1.000 1.00000 2.260 1.000      1.641  23.000
 1096 2.300 1.977  2.623 1.000 1.00000 2.300 1.000     12.733  23.000
 1097 2.250 1.932  2.568 1.000 1.00000 2.250 1.000      0.733  23.000
 1098 2.290 1.968  2.612 1.000 1.00000 2.290 1.000      6.026  23.000
 1099 2.260 1.941  2.579 1.000 1.00000 2.260 1.000      1.455  23.000
 1100 2.170 1.859  2.481 1.000 1.00000 2.150 1.000     11.465  23.000
