## File LOS/SB2_B2004a_3.0z_Mags_200.bpz  Fri Aug 12 23:37:13 2016
##
##Parameters used to run BPZ:
##
##AB_DIR=/home/lidenscheng/bpz-1.99.3//AB/
##ADD_CONTINUOUS_PROB=None
##ADD_SPEC_PROB=None
##CHECK=LOS/SB2_B2004a_3.0z_Mags_200.flux_comparison
##COLOR=no
##COLUMNS=losNoErrors.columns
##CONVOLVE_P=yes
##DELTA_M_0=0.0
##DZ=0.01
##EXCLUDE=none
##FC=None
##FILTER_DIR=/home/lidenscheng/MK_DirectSim/filters/
##GET_Z=yes
##INPUT=LOS/SB2_B2004a_3.0z_Mags_200.txt
##INTERACTIVE=yes
##INTERP=0
##MADAU=no
##MAG=yes
##MEAN_IGM=yes
##MERGE_PEAKS=no
##MIN_MAGERR=0.001
##MIN_RMS=0.05
##NEW_AB=no
##NMAX=None
##NTYPES=None
##N_PEAKS=1
##ODDS=0.95
##ONLY_TYPE=no
##OUTPUT=LOS/SB2_B2004a_3.0z_Mags_200.bpz
##PHOTO_ERRORS=no
##PLOTS=no
##PRIOR=none
##PROBS=no
##PROBS2=no
##PROBS_LITE=LOS/SB2_B2004a_3.0z_Mags_200.probs
##P_MIN=0.01
##SED_DIR=/home/lidenscheng/MK_DirectSim/SEDs/
##SPECTRA=SB2.list
##VERBOSE=yes
##ZC=None
##ZMAX=10.0
##ZMIN=0.01
##ZP_OFFSETS=0.0
##Z_THR=0
##
##Column information
##
# 1 ID
# 2 Z_B
# 3 Z_B_MIN
# 4 Z_B_MAX
# 5 T_B
# 6 ODDS    
# 7 Z_ML
# 8 T_ML
# 9 CHI-SQUARED
# 10 M_0
##
    1 3.080 2.680  3.480 1.000 1.00000 3.080 1.000      4.417  23.000
    2 3.120 2.716  3.524 1.000 1.00000 3.120 1.000      7.214  23.000
    3 3.130 2.725  3.535 1.000 1.00000 3.130 1.000     24.200  23.000
    4 3.110 2.707  3.513 1.000 1.00000 3.110 1.000      7.196  23.000
    5 3.100 2.698  3.502 1.000 1.00000 3.100 1.000      4.767  23.000
    6 3.090 2.689  3.491 1.000 1.00000 3.090 1.000     13.490  23.000
    7 3.120 2.716  3.524 1.000 1.00000 3.120 1.000      8.379  23.000
    8 3.080 2.680  3.480 1.000 1.00000 3.080 1.000     10.396  23.000
    9 3.110 2.707  3.513 1.000 1.00000 3.110 1.000     42.459  23.000
   10 3.110 2.707  3.513 1.000 1.00000 3.110 1.000     14.603  23.000
   11 3.110 2.707  3.513 1.000 1.00000 3.110 1.000      9.238  23.000
   12 3.070 2.671  3.469 1.000 1.00000 3.070 1.000      3.413  23.000
   13 3.090 2.689  3.491 1.000 1.00000 3.090 1.000      7.645  23.000
   14 3.110 2.707  3.513 1.000 1.00000 3.110 1.000     11.905  23.000
   15 3.100 2.698  3.502 1.000 1.00000 3.100 1.000     16.606  23.000
   16 3.100 2.698  3.502 1.000 1.00000 3.100 1.000      5.204  23.000
   17 3.090 2.689  3.491 1.000 1.00000 3.090 1.000      4.177  23.000
   18 3.120 2.716  3.524 1.000 1.00000 3.120 1.000      9.175  23.000
   19 3.070 2.671  3.469 1.000 1.00000 3.070 1.000      6.894  23.000
   20 3.070 2.671  3.469 1.000 1.00000 3.070 1.000     14.407  23.000
   21 3.070 2.671  3.469 1.000 1.00000 3.070 1.000      2.829  23.000
   22 3.100 2.698  3.502 1.000 1.00000 3.100 1.000      8.298  23.000
   23 3.060 2.662  3.458 1.000 1.00000 3.060 1.000      4.816  23.000
   24 3.050 2.653  3.447 1.000 1.00000 3.050 1.000      2.183  23.000
   25 3.120 2.716  3.524 1.000 1.00000 3.120 1.000      9.387  23.000
   26 3.100 2.698  3.502 1.000 1.00000 3.100 1.000      6.604  23.000
   27 3.040 2.644  3.436 1.000 1.00000 3.040 1.000      6.716  23.000
   28 3.100 2.698  3.502 1.000 1.00000 3.100 1.000      5.226  23.000
   29 3.070 2.671  3.469 1.000 1.00000 3.070 1.000      5.003  23.000
   30 3.070 2.671  3.469 1.000 1.00000 3.070 1.000      6.208  23.000
   31 3.110 2.707  3.513 1.000 1.00000 3.110 1.000      9.665  23.000
   32 3.080 2.680  3.480 1.000 1.00000 3.080 1.000      4.134  23.000
   33 3.090 2.689  3.491 1.000 1.00000 3.090 1.000      5.015  23.000
   34 3.070 2.671  3.469 1.000 1.00000 3.070 1.000      2.618  23.000
   35 3.070 2.671  3.469 1.000 1.00000 3.070 1.000      3.303  23.000
   36 3.090 2.689  3.491 1.000 1.00000 3.090 1.000     32.987  23.000
   37 3.070 2.671  3.469 1.000 1.00000 3.070 1.000      3.844  23.000
   38 3.090 2.689  3.491 1.000 1.00000 3.090 1.000     17.994  23.000
   39 3.070 2.671  3.469 1.000 1.00000 3.070 1.000      4.033  23.000
   40 3.090 2.689  3.491 1.000 1.00000 3.090 1.000      8.065  23.000
   41 3.110 2.707  3.513 1.000 1.00000 3.110 1.000     14.134  23.000
   42 3.070 2.671  3.469 1.000 1.00000 3.070 1.000     26.273  23.000
   43 3.100 2.698  3.502 1.000 1.00000 3.100 1.000      4.894  23.000
   44 3.090 2.689  3.491 1.000 1.00000 3.090 1.000      7.128  23.000
   45 3.080 2.680  3.480 1.000 1.00000 3.080 1.000      9.529  23.000
   46 3.040 2.644  3.436 1.000 1.00000 3.040 1.000      2.313  23.000
   47 3.080 2.680  3.480 1.000 1.00000 3.080 1.000      2.654  23.000
   48 3.080 2.680  3.480 1.000 1.00000 3.080 1.000     16.098  23.000
   49 3.100 2.698  3.502 1.000 1.00000 3.100 1.000     15.604  23.000
   50 3.070 2.671  3.469 1.000 1.00000 3.070 1.000      5.076  23.000
   51 3.090 2.689  3.491 1.000 1.00000 3.090 1.000     12.939  23.000
   52 3.110 2.707  3.513 1.000 1.00000 3.110 1.000      5.297  23.000
   53 3.060 2.662  3.458 1.000 1.00000 3.060 1.000      2.247  23.000
   54 3.140 2.734  3.546 1.000 1.00000 3.140 1.000     26.774  23.000
   55 3.110 2.707  3.513 1.000 1.00000 3.110 1.000      6.459  23.000
   56 3.100 2.698  3.502 1.000 1.00000 3.100 1.000     16.326  23.000
   57 3.080 2.680  3.480 1.000 1.00000 3.080 1.000     10.067  23.000
   58 3.090 2.689  3.491 1.000 1.00000 3.090 1.000     24.326  23.000
   59 3.110 2.707  3.513 1.000 1.00000 3.110 1.000      5.815  23.000
   60 3.090 2.689  3.491 1.000 1.00000 3.090 1.000      7.614  23.000
   61 3.060 2.662  3.458 1.000 1.00000 3.060 1.000      2.525  23.000
   62 3.080 2.680  3.480 1.000 1.00000 3.080 1.000     11.856  23.000
   63 3.100 2.698  3.502 1.000 1.00000 3.100 1.000      4.700  23.000
   64 3.060 2.662  3.458 1.000 1.00000 3.060 1.000      8.253  23.000
   65 3.090 2.689  3.491 1.000 1.00000 3.090 1.000      5.212  23.000
   66 3.070 2.671  3.469 1.000 1.00000 3.070 1.000      3.262  23.000
   67 3.090 2.689  3.491 1.000 1.00000 3.090 1.000      4.591  23.000
   68 3.120 2.716  3.524 1.000 1.00000 3.120 1.000     14.335  23.000
   69 3.110 2.707  3.513 1.000 1.00000 3.110 1.000     26.490  23.000
   70 3.080 2.680  3.480 1.000 1.00000 3.080 1.000      2.496  23.000
   71 3.070 2.671  3.469 1.000 1.00000 3.070 1.000      4.986  23.000
   72 3.080 2.680  3.480 1.000 1.00000 3.080 1.000     16.914  23.000
   73 3.080 2.680  3.480 1.000 1.00000 3.080 1.000     19.646  23.000
   74 3.080 2.680  3.480 1.000 1.00000 3.080 1.000     15.942  23.000
   75 3.040 2.644  3.436 1.000 1.00000 3.040 1.000      1.995  23.000
   76 3.090 2.689  3.491 1.000 1.00000 3.090 1.000      3.260  23.000
   77 3.070 2.671  3.469 1.000 1.00000 3.070 1.000      4.182  23.000
   78 3.110 2.707  3.513 1.000 1.00000 3.110 1.000      8.815  23.000
   79 3.110 2.707  3.513 1.000 1.00000 3.110 1.000      8.357  23.000
   80 3.100 2.698  3.502 1.000 1.00000 3.100 1.000     12.287  23.000
   81 3.100 2.698  3.502 1.000 1.00000 3.100 1.000      8.253  23.000
   82 3.070 2.671  3.469 1.000 1.00000 3.070 1.000      2.058  23.000
   83 3.080 2.680  3.480 1.000 1.00000 3.080 1.000      3.151  23.000
   84 3.130 2.725  3.535 1.000 1.00000 3.130 1.000     11.290  23.000
   85 3.100 2.698  3.502 1.000 1.00000 3.100 1.000     34.427  23.000
   86 3.120 2.716  3.524 1.000 1.00000 3.120 1.000     17.222  23.000
   87 3.110 2.707  3.513 1.000 1.00000 3.110 1.000     24.041  23.000
   88 3.110 2.707  3.513 1.000 1.00000 3.110 1.000      5.564  23.000
   89 3.130 2.725  3.535 1.000 1.00000 3.130 1.000     12.002  23.000
   90 3.100 2.698  3.502 1.000 1.00000 3.100 1.000     17.279  23.000
   91 3.050 2.653  3.447 1.000 1.00000 3.050 1.000     21.651  23.000
   92 3.110 2.707  3.513 1.000 1.00000 3.110 1.000     10.327  23.000
   93 3.080 2.680  3.480 1.000 1.00000 3.080 1.000     12.199  23.000
   94 3.060 2.662  3.458 1.000 1.00000 3.060 1.000      2.598  23.000
   95 3.110 2.707  3.513 1.000 1.00000 3.110 1.000      8.515  23.000
   96 3.070 2.671  3.469 1.000 1.00000 3.070 1.000      4.959  23.000
   97 3.100 2.698  3.502 1.000 1.00000 3.100 1.000      7.427  23.000
   98 3.100 2.698  3.502 1.000 1.00000 3.100 1.000      4.242  23.000
   99 3.110 2.707  3.513 1.000 1.00000 3.110 1.000      5.545  23.000
  100 3.050 2.653  3.447 1.000 1.00000 3.050 1.000      8.001  23.000
  101 3.060 2.662  3.458 1.000 1.00000 3.060 1.000      2.737  23.000
  102 3.090 2.689  3.491 1.000 1.00000 3.090 1.000     41.591  23.000
  103 3.110 2.707  3.513 1.000 1.00000 3.110 1.000     14.718  23.000
  104 3.090 2.689  3.491 1.000 1.00000 3.090 1.000      5.975  23.000
  105 3.080 2.680  3.480 1.000 1.00000 3.080 1.000     17.467  23.000
  106 3.090 2.689  3.491 1.000 1.00000 3.090 1.000     27.020  23.000
  107 3.080 2.680  3.480 1.000 1.00000 3.080 1.000     12.053  23.000
  108 3.080 2.680  3.480 1.000 1.00000 3.080 1.000      3.298  23.000
  109 3.090 2.689  3.491 1.000 1.00000 3.090 1.000     10.413  23.000
  110 3.070 2.671  3.469 1.000 1.00000 3.070 1.000      4.022  23.000
  111 3.090 2.689  3.491 1.000 1.00000 3.090 1.000      3.338  23.000
  112 3.100 2.698  3.502 1.000 1.00000 3.100 1.000     27.837  23.000
  113 3.080 2.680  3.480 1.000 1.00000 3.080 1.000      6.399  23.000
  114 3.070 2.671  3.469 1.000 1.00000 3.070 1.000     26.140  23.000
  115 3.060 2.662  3.458 1.000 1.00000 3.060 1.000      9.644  23.000
  116 3.060 2.662  3.458 1.000 1.00000 3.060 1.000     18.240  23.000
  117 3.080 2.680  3.480 1.000 1.00000 3.080 1.000      3.340  23.000
  118 3.100 2.698  3.502 1.000 1.00000 3.100 1.000      8.793  23.000
  119 3.070 2.671  3.469 1.000 1.00000 3.070 1.000      5.525  23.000
  120 3.070 2.671  3.469 1.000 1.00000 3.070 1.000      6.295  23.000
  121 3.090 2.689  3.491 1.000 1.00000 3.090 1.000      6.453  23.000
  122 3.090 2.689  3.491 1.000 1.00000 3.090 1.000      3.354  23.000
  123 3.080 2.680  3.480 1.000 1.00000 3.080 1.000     18.603  23.000
  124 3.090 2.689  3.491 1.000 1.00000 3.090 1.000      8.082  23.000
  125 3.120 2.716  3.524 1.000 1.00000 3.120 1.000     12.579  23.000
  126 3.060 2.662  3.458 1.000 1.00000 3.060 1.000      3.723  23.000
  127 3.080 2.680  3.480 1.000 1.00000 3.080 1.000      4.533  23.000
  128 3.100 2.698  3.502 1.000 1.00000 3.100 1.000      6.923  23.000
  129 3.100 2.698  3.502 1.000 1.00000 3.100 1.000      7.631  23.000
  130 3.080 2.680  3.480 1.000 1.00000 3.080 1.000      8.485  23.000
  131 3.080 2.680  3.480 1.000 1.00000 3.080 1.000      7.021  23.000
  132 3.090 2.689  3.491 1.000 1.00000 3.090 1.000      6.839  23.000
  133 3.080 2.680  3.480 1.000 1.00000 3.080 1.000      9.306  23.000
  134 3.070 2.671  3.469 1.000 1.00000 3.070 1.000      5.467  23.000
  135 3.080 2.680  3.480 1.000 1.00000 3.080 1.000     14.535  23.000
  136 3.120 2.716  3.524 1.000 1.00000 3.120 1.000     10.990  23.000
  137 3.110 2.707  3.513 1.000 1.00000 3.110 1.000     15.723  23.000
  138 3.080 2.680  3.480 1.000 1.00000 3.080 1.000      6.874  23.000
  139 3.110 2.707  3.513 1.000 1.00000 3.110 1.000      6.238  23.000
  140 3.110 2.707  3.513 1.000 1.00000 3.110 1.000     38.248  23.000
  141 3.060 2.662  3.458 1.000 1.00000 3.060 1.000      6.806  23.000
  142 3.110 2.707  3.513 1.000 1.00000 3.110 1.000      6.166  23.000
  143 3.100 2.698  3.502 1.000 1.00000 3.100 1.000     11.943  23.000
  144 3.100 2.698  3.502 1.000 1.00000 3.100 1.000      5.819  23.000
  145 3.070 2.671  3.469 1.000 1.00000 3.070 1.000     17.943  23.000
  146 3.060 2.662  3.458 1.000 1.00000 3.060 1.000     15.880  23.000
  147 3.120 2.716  3.524 1.000 1.00000 3.120 1.000      7.058  23.000
  148 3.060 2.662  3.458 1.000 1.00000 3.060 1.000      4.286  23.000
  149 3.070 2.671  3.469 1.000 1.00000 3.070 1.000      2.023  23.000
  150 3.080 2.680  3.480 1.000 1.00000 3.080 1.000     11.575  23.000
  151 3.070 2.671  3.469 1.000 1.00000 3.070 1.000      2.598  23.000
  152 3.100 2.698  3.502 1.000 1.00000 3.100 1.000     18.459  23.000
  153 3.070 2.671  3.469 1.000 1.00000 3.070 1.000      1.799  23.000
  154 3.080 2.680  3.480 1.000 1.00000 3.080 1.000      8.033  23.000
  155 3.090 2.689  3.491 1.000 1.00000 3.090 1.000      5.589  23.000
  156 3.100 2.698  3.502 1.000 1.00000 3.100 1.000      8.119  23.000
  157 3.080 2.680  3.480 1.000 1.00000 3.080 1.000      5.327  23.000
  158 3.080 2.680  3.480 1.000 1.00000 3.080 1.000      6.858  23.000
  159 3.060 2.662  3.458 1.000 1.00000 3.060 1.000     30.923  23.000
  160 3.120 2.716  3.524 1.000 1.00000 3.120 1.000     10.595  23.000
  161 3.100 2.698  3.502 1.000 1.00000 3.100 1.000     10.199  23.000
  162 3.120 2.716  3.524 1.000 1.00000 3.120 1.000     19.383  23.000
  163 3.130 2.725  3.535 1.000 1.00000 3.130 1.000     13.907  23.000
  164 3.090 2.689  3.491 1.000 1.00000 3.090 1.000      5.946  23.000
  165 3.070 2.671  3.469 1.000 1.00000 3.070 1.000      3.361  23.000
  166 3.090 2.689  3.491 1.000 1.00000 3.090 1.000      3.728  23.000
  167 3.100 2.698  3.502 1.000 1.00000 3.100 1.000     18.579  23.000
  168 3.080 2.680  3.480 1.000 1.00000 3.080 1.000     25.388  23.000
  169 3.060 2.662  3.458 1.000 1.00000 3.060 1.000      4.992  23.000
  170 3.100 2.698  3.502 1.000 1.00000 3.100 1.000      3.960  23.000
  171 3.110 2.707  3.513 1.000 1.00000 3.110 1.000      7.788  23.000
  172 3.050 2.653  3.447 1.000 1.00000 3.050 1.000      1.052  23.000
  173 3.090 2.689  3.491 1.000 1.00000 3.090 1.000      3.370  23.000
  174 3.070 2.671  3.469 1.000 1.00000 3.070 1.000     31.552  23.000
  175 3.060 2.662  3.458 1.000 1.00000 3.060 1.000      6.135  23.000
  176 3.120 2.716  3.524 1.000 1.00000 3.120 1.000     10.326  23.000
  177 3.080 2.680  3.480 1.000 1.00000 3.080 1.000     17.740  23.000
  178 3.060 2.662  3.458 1.000 1.00000 3.060 1.000      4.226  23.000
  179 3.100 2.698  3.502 1.000 1.00000 3.100 1.000      6.680  23.000
  180 3.050 2.653  3.447 1.000 1.00000 3.050 1.000      4.135  23.000
  181 3.070 2.671  3.469 1.000 1.00000 3.070 1.000      6.439  23.000
  182 3.070 2.671  3.469 1.000 1.00000 3.070 1.000     14.786  23.000
  183 3.090 2.689  3.491 1.000 1.00000 3.090 1.000      5.800  23.000
  184 3.080 2.680  3.480 1.000 1.00000 3.080 1.000     19.294  23.000
  185 3.070 2.671  3.469 1.000 1.00000 3.070 1.000      2.298  23.000
  186 3.110 2.707  3.513 1.000 1.00000 3.110 1.000     10.004  23.000
  187 3.080 2.680  3.480 1.000 1.00000 3.080 1.000      4.731  23.000
  188 3.070 2.671  3.469 1.000 1.00000 3.070 1.000      7.716  23.000
  189 3.090 2.689  3.491 1.000 1.00000 3.090 1.000      8.852  23.000
  190 3.120 2.716  3.524 1.000 1.00000 3.120 1.000     19.108  23.000
  191 3.080 2.680  3.480 1.000 1.00000 3.080 1.000     15.115  23.000
  192 3.150 2.743  3.557 1.000 1.00000 3.150 1.000     17.038  23.000
  193 3.070 2.671  3.469 1.000 1.00000 3.070 1.000     18.789  23.000
  194 3.100 2.698  3.502 1.000 1.00000 3.100 1.000      7.978  23.000
  195 3.070 2.671  3.469 1.000 1.00000 3.070 1.000      2.124  23.000
  196 3.130 2.725  3.535 1.000 1.00000 3.130 1.000     24.950  23.000
  197 3.030 2.635  3.425 1.000 1.00000 3.030 1.000     21.785  23.000
  198 3.100 2.698  3.502 1.000 1.00000 3.100 1.000     39.797  23.000
  199 3.080 2.680  3.480 1.000 1.00000 3.080 1.000      8.072  23.000
  200 3.080 2.680  3.480 1.000 1.00000 3.080 1.000      2.250  23.000
