## File LOS/SB2_B2004a_2.8z_Mags_1700.bpz  Sat Aug 13 01:37:25 2016
##
##Parameters used to run BPZ:
##
##AB_DIR=/home/lidenscheng/bpz-1.99.3//AB/
##ADD_CONTINUOUS_PROB=None
##ADD_SPEC_PROB=None
##CHECK=LOS/SB2_B2004a_2.8z_Mags_1700.flux_comparison
##COLOR=no
##COLUMNS=losNoErrors.columns
##CONVOLVE_P=yes
##DELTA_M_0=0.0
##DZ=0.01
##EXCLUDE=none
##FC=None
##FILTER_DIR=/home/lidenscheng/MK_DirectSim/filters/
##GET_Z=yes
##INPUT=LOS/SB2_B2004a_2.8z_Mags_1700.txt
##INTERACTIVE=yes
##INTERP=0
##MADAU=no
##MAG=yes
##MEAN_IGM=yes
##MERGE_PEAKS=no
##MIN_MAGERR=0.001
##MIN_RMS=0.05
##NEW_AB=no
##NMAX=None
##NTYPES=None
##N_PEAKS=1
##ODDS=0.95
##ONLY_TYPE=no
##OUTPUT=LOS/SB2_B2004a_2.8z_Mags_1700.bpz
##PHOTO_ERRORS=no
##PLOTS=no
##PRIOR=none
##PROBS=no
##PROBS2=no
##PROBS_LITE=LOS/SB2_B2004a_2.8z_Mags_1700.probs
##P_MIN=0.01
##SED_DIR=/home/lidenscheng/MK_DirectSim/SEDs/
##SPECTRA=SB2.list
##VERBOSE=yes
##ZC=None
##ZMAX=10.0
##ZMIN=0.01
##ZP_OFFSETS=0.0
##Z_THR=0
##
##Column information
##
# 1 ID
# 2 Z_B
# 3 Z_B_MIN
# 4 Z_B_MAX
# 5 T_B
# 6 ODDS    
# 7 Z_ML
# 8 T_ML
# 9 CHI-SQUARED
# 10 M_0
##
    1 2.930 2.545  3.315 1.000 1.00000 2.930 1.000     20.183  23.000
    2 2.930 2.545  3.315 1.000 1.00000 2.930 1.000     42.680  23.000
    3 2.890 2.509  3.271 1.000 1.00000 2.890 1.000     24.898  23.000
    4 2.860 2.482  3.238 1.000 1.00000 2.860 1.000     10.774  23.000
    5 2.850 2.473  3.227 1.000 1.00000 2.850 1.000      2.767  23.000
    6 2.860 2.482  3.238 1.000 1.00000 2.860 1.000      8.253  23.000
    7 2.900 2.518  3.282 1.000 1.00000 2.900 1.000      8.818  23.000
    8 2.900 2.518  3.282 1.000 1.00000 2.900 1.000     10.690  23.000
    9 2.870 2.491  3.249 1.000 1.00000 2.870 1.000      4.229  23.000
   10 2.850 2.473  3.227 1.000 1.00000 2.850 1.000      9.452  23.000
   11 2.930 2.545  3.315 1.000 1.00000 2.930 1.000     52.800  23.000
   12 2.850 2.473  3.227 1.000 1.00000 2.850 1.000      5.103  23.000
   13 2.880 2.500  3.260 1.000 1.00000 2.880 1.000     18.054  23.000
   14 2.950 2.563  3.337 1.000 1.00000 2.950 1.000     16.932  23.000
   15 2.930 2.545  3.315 1.000 1.00000 2.930 1.000     26.892  23.000
   16 2.920 2.536  3.304 1.000 1.00000 2.920 1.000     35.841  23.000
   17 2.910 2.527  3.293 1.000 1.00000 2.910 1.000     25.669  23.000
   18 2.870 2.491  3.249 1.000 1.00000 2.870 1.000      5.121  23.000
   19 2.890 2.509  3.271 1.000 1.00000 2.890 1.000     15.886  23.000
   20 2.900 2.518  3.282 1.000 1.00000 2.900 1.000     27.815  23.000
   21 2.860 2.482  3.238 1.000 1.00000 2.860 1.000     13.045  23.000
   22 2.880 2.500  3.260 1.000 1.00000 2.880 1.000     11.425  23.000
   23 2.860 2.482  3.238 1.000 1.00000 2.860 1.000      9.892  23.000
   24 2.850 2.473  3.227 1.000 1.00000 2.850 1.000     13.255  23.000
   25 2.930 2.545  3.315 1.000 1.00000 2.930 1.000     32.706  23.000
   26 2.910 2.527  3.293 1.000 1.00000 2.910 1.000     25.494  23.000
   27 2.860 2.482  3.238 1.000 1.00000 2.860 1.000      4.284  23.000
   28 2.930 2.545  3.315 1.000 1.00000 2.930 1.000     56.741  23.000
   29 2.920 2.536  3.304 1.000 1.00000 2.920 1.000     20.029  23.000
   30 2.910 2.527  3.293 1.000 1.00000 2.910 1.000     21.596  23.000
   31 2.900 2.518  3.282 1.000 1.00000 2.900 1.000     23.652  23.000
   32 2.860 2.482  3.238 1.000 1.00000 2.860 1.000     10.411  23.000
   33 2.860 2.482  3.238 1.000 1.00000 2.860 1.000      9.666  23.000
   34 2.930 2.545  3.315 1.000 1.00000 2.930 1.000     24.511  23.000
   35 2.920 2.536  3.304 1.000 1.00000 2.920 1.000     17.166  23.000
   36 2.890 2.509  3.271 1.000 1.00000 2.890 1.000     33.539  23.000
   37 2.920 2.536  3.304 1.000 1.00000 2.920 1.000     40.329  23.000
   38 2.940 2.554  3.326 1.000 1.00000 2.940 1.000     55.737  23.000
   39 2.850 2.473  3.227 1.000 1.00000 2.850 1.000     23.128  23.000
   40 2.920 2.536  3.304 1.000 1.00000 2.920 1.000     28.380  23.000
   41 2.930 2.545  3.315 1.000 1.00000 2.930 1.000     27.643  23.000
   42 2.950 2.563  3.337 1.000 1.00000 2.950 1.000     41.520  23.000
   43 2.920 2.536  3.304 1.000 1.00000 2.920 1.000     23.086  23.000
   44 2.880 2.500  3.260 1.000 1.00000 2.880 1.000     28.511  23.000
   45 2.850 2.473  3.227 1.000 1.00000 2.850 1.000     19.144  23.000
   46 2.910 2.527  3.293 1.000 1.00000 2.910 1.000     10.747  23.000
   47 2.850 2.473  3.227 1.000 1.00000 2.850 1.000     14.397  23.000
   48 2.890 2.509  3.271 1.000 1.00000 2.890 1.000     10.894  23.000
   49 2.960 2.572  3.348 1.000 1.00000 2.960 1.000     50.892  23.000
   50 2.860 2.482  3.238 1.000 1.00000 2.860 1.000     28.179  23.000
   51 2.900 2.518  3.282 1.000 1.00000 2.900 1.000     15.476  23.000
   52 2.930 2.545  3.315 1.000 1.00000 2.930 1.000     28.330  23.000
   53 2.880 2.500  3.260 1.000 1.00000 2.880 1.000     14.358  23.000
   54 2.890 2.509  3.271 1.000 1.00000 2.890 1.000     14.498  23.000
   55 2.880 2.500  3.260 1.000 1.00000 2.880 1.000     19.607  23.000
   56 2.910 2.527  3.293 1.000 1.00000 2.910 1.000     15.154  23.000
   57 2.850 2.473  3.227 1.000 1.00000 2.850 1.000      3.124  23.000
   58 2.830 2.455  3.205 1.000 1.00000 2.830 1.000      1.885  23.000
   59 2.870 2.491  3.249 1.000 1.00000 2.870 1.000     14.277  23.000
   60 2.880 2.500  3.260 1.000 1.00000 2.880 1.000     20.796  23.000
   61 2.890 2.509  3.271 1.000 1.00000 2.890 1.000     22.451  23.000
   62 2.860 2.482  3.238 1.000 1.00000 2.860 1.000      9.509  23.000
   63 2.880 2.500  3.260 1.000 1.00000 2.880 1.000     25.515  23.000
   64 2.940 2.554  3.326 1.000 1.00000 2.940 1.000     20.864  23.000
   65 2.930 2.545  3.315 1.000 1.00000 2.930 1.000     28.910  23.000
   66 2.860 2.482  3.238 1.000 1.00000 2.860 1.000     10.248  23.000
   67 2.960 2.572  3.348 1.000 1.00000 2.960 1.000     65.907  23.000
   68 2.870 2.491  3.249 1.000 1.00000 2.870 1.000     28.700  23.000
   69 2.870 2.491  3.249 1.000 1.00000 2.870 1.000     19.276  23.000
   70 2.850 2.473  3.227 1.000 1.00000 2.850 1.000     13.666  23.000
   71 2.890 2.509  3.271 1.000 1.00000 2.890 1.000     26.368  23.000
   72 2.890 2.509  3.271 1.000 1.00000 2.890 1.000     17.232  23.000
   73 2.850 2.473  3.227 1.000 1.00000 2.850 1.000      8.387  23.000
   74 2.860 2.482  3.238 1.000 1.00000 2.860 1.000     20.440  23.000
   75 2.850 2.473  3.227 1.000 1.00000 2.850 1.000     22.412  23.000
   76 2.930 2.545  3.315 1.000 1.00000 2.930 1.000     17.487  23.000
   77 2.840 2.464  3.216 1.000 1.00000 2.840 1.000      2.578  23.000
   78 2.920 2.536  3.304 1.000 1.00000 2.920 1.000     16.301  23.000
   79 2.860 2.482  3.238 1.000 1.00000 2.860 1.000     25.364  23.000
   80 2.890 2.509  3.271 1.000 1.00000 2.890 1.000     22.311  23.000
   81 2.870 2.491  3.249 1.000 1.00000 2.870 1.000     11.719  23.000
   82 2.920 2.536  3.304 1.000 1.00000 2.920 1.000     24.635  23.000
   83 2.900 2.518  3.282 1.000 1.00000 2.900 1.000     18.179  23.000
   84 2.850 2.473  3.227 1.000 1.00000 2.850 1.000     14.668  23.000
   85 2.870 2.491  3.249 1.000 1.00000 2.870 1.000     17.394  23.000
   86 2.860 2.482  3.238 1.000 1.00000 2.860 1.000     28.789  23.000
   87 2.870 2.491  3.249 1.000 1.00000 2.870 1.000     22.370  23.000
   88 2.860 2.482  3.238 1.000 1.00000 2.860 1.000      7.202  23.000
   89 2.920 2.536  3.304 1.000 1.00000 2.920 1.000     15.838  23.000
   90 2.860 2.482  3.238 1.000 1.00000 2.860 1.000     13.425  23.000
   91 2.930 2.545  3.315 1.000 1.00000 2.930 1.000     31.680  23.000
   92 2.860 2.482  3.238 1.000 1.00000 2.860 1.000     17.440  23.000
   93 2.960 2.572  3.348 1.000 1.00000 2.960 1.000     41.773  23.000
   94 2.910 2.527  3.293 1.000 1.00000 2.910 1.000     24.646  23.000
   95 2.880 2.500  3.260 1.000 1.00000 2.880 1.000     16.875  23.000
   96 2.900 2.518  3.282 1.000 1.00000 2.900 1.000     14.816  23.000
   97 2.910 2.527  3.293 1.000 1.00000 2.910 1.000     17.511  23.000
   98 2.870 2.491  3.249 1.000 1.00000 2.870 1.000     16.376  23.000
   99 2.850 2.473  3.227 1.000 1.00000 2.850 1.000     25.547  23.000
  100 2.840 2.464  3.216 1.000 1.00000 2.840 1.000      2.518  23.000
  101 2.880 2.500  3.260 1.000 1.00000 2.880 1.000     14.942  23.000
  102 2.890 2.509  3.271 1.000 1.00000 2.890 1.000     29.737  23.000
  103 2.870 2.491  3.249 1.000 1.00000 2.870 1.000     15.891  23.000
  104 2.890 2.509  3.271 1.000 1.00000 2.890 1.000     54.367  23.000
  105 2.900 2.518  3.282 1.000 1.00000 2.900 1.000     38.115  23.000
  106 2.950 2.563  3.337 1.000 1.00000 2.950 1.000     51.075  23.000
  107 2.880 2.500  3.260 1.000 1.00000 2.880 1.000      6.189  23.000
  108 2.890 2.509  3.271 1.000 1.00000 2.890 1.000      7.694  23.000
  109 2.920 2.536  3.304 1.000 1.00000 2.920 1.000     30.161  23.000
  110 2.890 2.509  3.271 1.000 1.00000 2.890 1.000     12.665  23.000
  111 2.890 2.509  3.271 1.000 1.00000 2.890 1.000     41.985  23.000
  112 2.930 2.545  3.315 1.000 1.00000 2.930 1.000     33.707  23.000
  113 2.910 2.527  3.293 1.000 1.00000 2.910 1.000     20.972  23.000
  114 2.860 2.482  3.238 1.000 1.00000 2.860 1.000     20.579  23.000
  115 2.900 2.518  3.282 1.000 1.00000 2.900 1.000     29.548  23.000
  116 2.900 2.518  3.282 1.000 1.00000 2.900 1.000     15.178  23.000
  117 2.920 2.536  3.304 1.000 1.00000 2.920 1.000     21.515  23.000
  118 2.850 2.473  3.227 1.000 1.00000 2.850 1.000     17.869  23.000
  119 2.940 2.554  3.326 1.000 1.00000 2.940 1.000     28.693  23.000
  120 2.880 2.500  3.260 1.000 1.00000 2.880 1.000     41.409  23.000
  121 2.900 2.518  3.282 1.000 1.00000 2.900 1.000     13.461  23.000
  122 2.930 2.545  3.315 1.000 1.00000 2.930 1.000     44.133  23.000
  123 2.940 2.554  3.326 1.000 1.00000 2.940 1.000     17.238  23.000
  124 2.860 2.482  3.238 1.000 1.00000 2.860 1.000     21.823  23.000
  125 2.900 2.518  3.282 1.000 1.00000 2.900 1.000     30.549  23.000
  126 2.860 2.482  3.238 1.000 1.00000 2.860 1.000      5.331  23.000
  127 2.860 2.482  3.238 1.000 1.00000 2.860 1.000      8.379  23.000
  128 2.900 2.518  3.282 1.000 1.00000 2.900 1.000     10.322  23.000
  129 2.920 2.536  3.304 1.000 1.00000 2.920 1.000     39.646  23.000
  130 2.900 2.518  3.282 1.000 1.00000 2.900 1.000     29.544  23.000
  131 2.850 2.473  3.227 1.000 1.00000 2.850 1.000      9.928  23.000
  132 2.890 2.509  3.271 1.000 1.00000 2.890 1.000     12.517  23.000
  133 2.940 2.554  3.326 1.000 1.00000 2.940 1.000     51.726  23.000
  134 2.870 2.491  3.249 1.000 1.00000 2.870 1.000     16.824  23.000
  135 2.860 2.482  3.238 1.000 1.00000 2.860 1.000     10.144  23.000
  136 2.850 2.473  3.227 1.000 1.00000 2.850 1.000     18.952  23.000
  137 2.850 2.473  3.227 1.000 1.00000 2.850 1.000     22.959  23.000
  138 2.870 2.491  3.249 1.000 1.00000 2.870 1.000     22.794  23.000
  139 2.940 2.554  3.326 1.000 1.00000 2.940 1.000     41.823  23.000
  140 2.900 2.518  3.282 1.000 1.00000 2.900 1.000     16.145  23.000
  141 2.900 2.518  3.282 1.000 1.00000 2.900 1.000     33.488  23.000
  142 2.860 2.482  3.238 1.000 1.00000 2.860 1.000     30.961  23.000
  143 2.890 2.509  3.271 1.000 1.00000 2.890 1.000     11.454  23.000
  144 2.870 2.491  3.249 1.000 1.00000 2.870 1.000     22.218  23.000
  145 2.930 2.545  3.315 1.000 1.00000 2.930 1.000     29.804  23.000
  146 2.880 2.500  3.260 1.000 1.00000 2.880 1.000     45.414  23.000
  147 2.860 2.482  3.238 1.000 1.00000 2.860 1.000      6.265  23.000
  148 2.930 2.545  3.315 1.000 1.00000 2.930 1.000     22.058  23.000
  149 2.890 2.509  3.271 1.000 1.00000 2.890 1.000     41.433  23.000
  150 2.870 2.491  3.249 1.000 1.00000 2.870 1.000      9.483  23.000
  151 2.950 2.563  3.337 1.000 1.00000 2.950 1.000     59.537  23.000
  152 2.900 2.518  3.282 1.000 1.00000 2.900 1.000     22.447  23.000
  153 2.850 2.473  3.227 1.000 1.00000 2.850 1.000     15.348  23.000
  154 2.900 2.518  3.282 1.000 1.00000 2.900 1.000     21.701  23.000
  155 2.870 2.491  3.249 1.000 1.00000 2.870 1.000      8.584  23.000
  156 2.950 2.563  3.337 1.000 1.00000 2.950 1.000     64.235  23.000
  157 2.920 2.536  3.304 1.000 1.00000 2.920 1.000     21.977  23.000
  158 2.860 2.482  3.238 1.000 1.00000 2.860 1.000     24.580  23.000
  159 2.850 2.473  3.227 1.000 1.00000 2.850 1.000     11.288  23.000
  160 2.880 2.500  3.260 1.000 1.00000 2.880 1.000     12.650  23.000
  161 2.860 2.482  3.238 1.000 1.00000 2.860 1.000     20.293  23.000
  162 2.930 2.545  3.315 1.000 1.00000 2.930 1.000     15.052  23.000
  163 2.880 2.500  3.260 1.000 1.00000 2.880 1.000     17.432  23.000
  164 2.900 2.518  3.282 1.000 1.00000 2.900 1.000      8.741  23.000
  165 2.860 2.482  3.238 1.000 1.00000 2.860 1.000      5.229  23.000
  166 2.860 2.482  3.238 1.000 1.00000 2.860 1.000     11.710  23.000
  167 2.840 2.464  3.216 1.000 1.00000 2.840 1.000      3.987  23.000
  168 2.860 2.482  3.238 1.000 1.00000 2.860 1.000     18.737  23.000
  169 2.860 2.482  3.238 1.000 1.00000 2.860 1.000     19.340  23.000
  170 2.870 2.491  3.249 1.000 1.00000 2.870 1.000     22.100  23.000
  171 2.890 2.509  3.271 1.000 1.00000 2.890 1.000      6.635  23.000
  172 2.860 2.482  3.238 1.000 1.00000 2.860 1.000      9.314  23.000
  173 2.910 2.527  3.293 1.000 1.00000 2.910 1.000     35.056  23.000
  174 2.970 2.581  3.359 1.000 1.00000 2.970 1.000    125.713  23.000
  175 2.890 2.509  3.271 1.000 1.00000 2.890 1.000      7.885  23.000
  176 2.900 2.518  3.282 1.000 1.00000 2.900 1.000     14.509  23.000
  177 2.860 2.482  3.238 1.000 1.00000 2.860 1.000      8.094  23.000
  178 2.880 2.500  3.260 1.000 1.00000 2.880 1.000     26.880  23.000
  179 2.850 2.473  3.227 1.000 1.00000 2.850 1.000     12.954  23.000
  180 2.950 2.563  3.337 1.000 1.00000 2.950 1.000     28.203  23.000
  181 2.850 2.473  3.227 1.000 1.00000 2.850 1.000      4.163  23.000
  182 2.890 2.509  3.271 1.000 1.00000 2.890 1.000      7.894  23.000
  183 2.890 2.509  3.271 1.000 1.00000 2.890 1.000     10.263  23.000
  184 3.030 2.635  3.425 1.000 1.00000 3.030 1.000    127.342  23.000
  185 2.860 2.482  3.238 1.000 1.00000 2.860 1.000     19.879  23.000
  186 2.900 2.518  3.282 1.000 1.00000 2.900 1.000     29.888  23.000
  187 2.870 2.491  3.249 1.000 1.00000 2.870 1.000     18.177  23.000
  188 2.920 2.536  3.304 1.000 1.00000 2.920 1.000     36.449  23.000
  189 2.930 2.545  3.315 1.000 1.00000 2.930 1.000     23.682  23.000
  190 2.860 2.482  3.238 1.000 1.00000 2.860 1.000      8.263  23.000
  191 2.860 2.482  3.238 1.000 1.00000 2.860 1.000     35.970  23.000
  192 2.860 2.482  3.238 1.000 1.00000 2.860 1.000      5.286  23.000
  193 2.910 2.527  3.293 1.000 1.00000 2.910 1.000     20.051  23.000
  194 2.890 2.509  3.271 1.000 1.00000 2.890 1.000     40.204  23.000
  195 2.910 2.527  3.293 1.000 1.00000 2.910 1.000     14.741  23.000
  196 2.880 2.500  3.260 1.000 1.00000 2.880 1.000     34.414  23.000
  197 2.940 2.554  3.326 1.000 1.00000 2.940 1.000     21.310  23.000
  198 2.920 2.536  3.304 1.000 1.00000 2.920 1.000     22.120  23.000
  199 2.860 2.482  3.238 1.000 1.00000 2.860 1.000     23.755  23.000
  200 2.950 2.563  3.337 1.000 1.00000 2.950 1.000     68.036  23.000
  201 2.870 2.491  3.249 1.000 1.00000 2.870 1.000     34.888  23.000
  202 2.860 2.482  3.238 1.000 1.00000 2.860 1.000      8.086  23.000
  203 2.900 2.518  3.282 1.000 1.00000 2.900 1.000     16.783  23.000
  204 2.920 2.536  3.304 1.000 1.00000 2.920 1.000     17.847  23.000
  205 2.900 2.518  3.282 1.000 1.00000 2.900 1.000     30.702  23.000
  206 2.860 2.482  3.238 1.000 1.00000 2.860 1.000      9.288  23.000
  207 2.870 2.491  3.249 1.000 1.00000 2.870 1.000     10.796  23.000
  208 2.860 2.482  3.238 1.000 1.00000 2.860 1.000      6.578  23.000
  209 2.850 2.473  3.227 1.000 1.00000 2.850 1.000     29.381  23.000
  210 2.870 2.491  3.249 1.000 1.00000 2.870 1.000     30.421  23.000
  211 2.920 2.536  3.304 1.000 1.00000 2.920 1.000     31.358  23.000
  212 2.920 2.536  3.304 1.000 1.00000 2.920 1.000     27.670  23.000
  213 2.900 2.518  3.282 1.000 1.00000 2.900 1.000     17.432  23.000
  214 2.910 2.527  3.293 1.000 1.00000 2.910 1.000     15.152  23.000
  215 2.890 2.509  3.271 1.000 1.00000 2.890 1.000     22.725  23.000
  216 2.860 2.482  3.238 1.000 1.00000 2.860 1.000     15.704  23.000
  217 2.850 2.473  3.227 1.000 1.00000 2.850 1.000     10.747  23.000
  218 2.920 2.536  3.304 1.000 1.00000 2.920 1.000     24.570  23.000
  219 2.870 2.491  3.249 1.000 1.00000 2.870 1.000     20.652  23.000
  220 2.860 2.482  3.238 1.000 1.00000 2.860 1.000      5.034  23.000
  221 2.920 2.536  3.304 1.000 1.00000 2.920 1.000     24.102  23.000
  222 2.850 2.473  3.227 1.000 1.00000 2.850 1.000      8.650  23.000
  223 2.880 2.500  3.260 1.000 1.00000 2.880 1.000     31.758  23.000
  224 2.860 2.482  3.238 1.000 1.00000 2.860 1.000     16.670  23.000
  225 2.870 2.491  3.249 1.000 1.00000 2.870 1.000      7.329  23.000
  226 2.890 2.509  3.271 1.000 1.00000 2.890 1.000     23.548  23.000
  227 2.880 2.500  3.260 1.000 1.00000 2.880 1.000      5.304  23.000
  228 2.940 2.554  3.326 1.000 1.00000 2.940 1.000     45.986  23.000
  229 2.860 2.482  3.238 1.000 1.00000 2.860 1.000     14.021  23.000
  230 2.860 2.482  3.238 1.000 1.00000 2.860 1.000     13.225  23.000
  231 2.920 2.536  3.304 1.000 1.00000 2.920 1.000     16.403  23.000
  232 2.880 2.500  3.260 1.000 1.00000 2.880 1.000      8.038  23.000
  233 2.830 2.455  3.205 1.000 1.00000 2.830 1.000      1.385  23.000
  234 2.900 2.518  3.282 1.000 1.00000 2.900 1.000     17.967  23.000
  235 2.860 2.482  3.238 1.000 1.00000 2.860 1.000     19.442  23.000
  236 2.930 2.545  3.315 1.000 1.00000 2.930 1.000     43.945  23.000
  237 2.930 2.545  3.315 1.000 1.00000 2.930 1.000     14.412  23.000
  238 2.850 2.473  3.227 1.000 1.00000 2.850 1.000     11.057  23.000
  239 2.940 2.554  3.326 1.000 1.00000 2.940 1.000     35.731  23.000
  240 2.870 2.491  3.249 1.000 1.00000 2.870 1.000      4.931  23.000
  241 2.860 2.482  3.238 1.000 1.00000 2.860 1.000     14.525  23.000
  242 2.910 2.527  3.293 1.000 1.00000 2.910 1.000     25.576  23.000
  243 2.880 2.500  3.260 1.000 1.00000 2.880 1.000      7.579  23.000
  244 2.930 2.545  3.315 1.000 1.00000 2.930 1.000     21.444  23.000
  245 2.850 2.473  3.227 1.000 1.00000 2.850 1.000     25.341  23.000
  246 2.860 2.482  3.238 1.000 1.00000 2.860 1.000     20.868  23.000
  247 2.850 2.473  3.227 1.000 1.00000 2.850 1.000     11.397  23.000
  248 2.860 2.482  3.238 1.000 1.00000 2.860 1.000     34.607  23.000
  249 2.900 2.518  3.282 1.000 1.00000 2.900 1.000     20.784  23.000
  250 2.880 2.500  3.260 1.000 1.00000 2.880 1.000     23.444  23.000
  251 2.890 2.509  3.271 1.000 1.00000 2.890 1.000     16.481  23.000
  252 2.870 2.491  3.249 1.000 1.00000 2.870 1.000     27.001  23.000
  253 2.910 2.527  3.293 1.000 1.00000 2.910 1.000     28.720  23.000
  254 2.890 2.509  3.271 1.000 1.00000 2.890 1.000     13.981  23.000
  255 2.850 2.473  3.227 1.000 1.00000 2.850 1.000     19.307  23.000
  256 2.890 2.509  3.271 1.000 1.00000 2.890 1.000     26.141  23.000
  257 2.860 2.482  3.238 1.000 1.00000 2.860 1.000     12.312  23.000
  258 2.860 2.482  3.238 1.000 1.00000 2.860 1.000     31.597  23.000
  259 2.900 2.518  3.282 1.000 1.00000 2.900 1.000     18.066  23.000
  260 2.850 2.473  3.227 1.000 1.00000 2.850 1.000      6.224  23.000
  261 2.860 2.482  3.238 1.000 1.00000 2.860 1.000      6.107  23.000
  262 2.940 2.554  3.326 1.000 1.00000 2.940 1.000     17.374  23.000
  263 2.900 2.518  3.282 1.000 1.00000 2.900 1.000     15.903  23.000
  264 2.900 2.518  3.282 1.000 1.00000 2.900 1.000     14.999  23.000
  265 2.910 2.527  3.293 1.000 1.00000 2.910 1.000     24.192  23.000
  266 2.900 2.518  3.282 1.000 1.00000 2.900 1.000     19.907  23.000
  267 2.950 2.563  3.337 1.000 1.00000 2.950 1.000     47.535  23.000
  268 2.930 2.545  3.315 1.000 1.00000 2.930 1.000     26.347  23.000
  269 2.910 2.527  3.293 1.000 1.00000 2.910 1.000     47.656  23.000
  270 2.860 2.482  3.238 1.000 1.00000 2.860 1.000     26.339  23.000
  271 2.940 2.554  3.326 1.000 1.00000 2.940 1.000     40.352  23.000
  272 2.950 2.563  3.337 1.000 1.00000 2.950 1.000     38.156  23.000
  273 2.860 2.482  3.238 1.000 1.00000 2.860 1.000     12.821  23.000
  274 2.920 2.536  3.304 1.000 1.00000 2.920 1.000     18.654  23.000
  275 2.930 2.545  3.315 1.000 1.00000 2.930 1.000     19.155  23.000
  276 2.910 2.527  3.293 1.000 1.00000 2.910 1.000     20.515  23.000
  277 2.920 2.536  3.304 1.000 1.00000 2.920 1.000     29.574  23.000
  278 2.900 2.518  3.282 1.000 1.00000 2.900 1.000     23.781  23.000
  279 2.910 2.527  3.293 1.000 1.00000 2.910 1.000     16.258  23.000
  280 2.890 2.509  3.271 1.000 1.00000 2.890 1.000      9.639  23.000
  281 2.860 2.482  3.238 1.000 1.00000 2.860 1.000     20.289  23.000
  282 2.850 2.473  3.227 1.000 1.00000 2.850 1.000     33.499  23.000
  283 2.860 2.482  3.238 1.000 1.00000 2.860 1.000     22.807  23.000
  284 2.900 2.518  3.282 1.000 1.00000 2.900 1.000     41.791  23.000
  285 2.890 2.509  3.271 1.000 1.00000 2.890 1.000     13.957  23.000
  286 2.890 2.509  3.271 1.000 1.00000 2.890 1.000     50.641  23.000
  287 2.950 2.563  3.337 1.000 1.00000 2.950 1.000     24.840  23.000
  288 2.910 2.527  3.293 1.000 1.00000 2.910 1.000     21.925  23.000
  289 2.860 2.482  3.238 1.000 1.00000 2.860 1.000     14.509  23.000
  290 2.860 2.482  3.238 1.000 1.00000 2.860 1.000     10.460  23.000
  291 2.960 2.572  3.348 1.000 1.00000 2.960 1.000     63.423  23.000
  292 2.880 2.500  3.260 1.000 1.00000 2.880 1.000     35.705  23.000
  293 2.860 2.482  3.238 1.000 1.00000 2.860 1.000      6.146  23.000
  294 2.920 2.536  3.304 1.000 1.00000 2.920 1.000     26.795  23.000
  295 2.860 2.482  3.238 1.000 1.00000 2.860 1.000     12.907  23.000
  296 2.900 2.518  3.282 1.000 1.00000 2.900 1.000     16.601  23.000
  297 2.900 2.518  3.282 1.000 1.00000 2.900 1.000     16.979  23.000
  298 2.920 2.536  3.304 1.000 1.00000 2.920 1.000     16.720  23.000
  299 2.890 2.509  3.271 1.000 1.00000 2.890 1.000     13.637  23.000
  300 2.950 2.563  3.337 1.000 1.00000 2.950 1.000     49.682  23.000
  301 2.890 2.509  3.271 1.000 1.00000 2.890 1.000     29.923  23.000
  302 2.860 2.482  3.238 1.000 1.00000 2.860 1.000     33.141  23.000
  303 2.890 2.509  3.271 1.000 1.00000 2.890 1.000     22.635  23.000
  304 2.850 2.473  3.227 1.000 1.00000 2.850 1.000     11.362  23.000
  305 2.920 2.536  3.304 1.000 1.00000 2.920 1.000     16.025  23.000
  306 2.880 2.500  3.260 1.000 1.00000 2.880 1.000     22.153  23.000
  307 2.880 2.500  3.260 1.000 1.00000 2.880 1.000     11.317  23.000
  308 2.890 2.509  3.271 1.000 1.00000 2.890 1.000     11.334  23.000
  309 2.870 2.491  3.249 1.000 1.00000 2.870 1.000      5.276  23.000
  310 2.880 2.500  3.260 1.000 1.00000 2.880 1.000     10.270  23.000
  311 2.930 2.545  3.315 1.000 1.00000 2.930 1.000     24.065  23.000
  312 2.870 2.491  3.249 1.000 1.00000 2.870 1.000     10.534  23.000
  313 2.900 2.518  3.282 1.000 1.00000 2.900 1.000     25.410  23.000
  314 2.890 2.509  3.271 1.000 1.00000 2.890 1.000     38.192  23.000
  315 2.880 2.500  3.260 1.000 1.00000 2.880 1.000     10.470  23.000
  316 2.850 2.473  3.227 1.000 1.00000 2.850 1.000     14.631  23.000
  317 2.910 2.527  3.293 1.000 1.00000 2.910 1.000     20.649  23.000
  318 2.860 2.482  3.238 1.000 1.00000 2.860 1.000      8.564  23.000
  319 2.940 2.554  3.326 1.000 1.00000 2.940 1.000     17.010  23.000
  320 2.930 2.545  3.315 1.000 1.00000 2.930 1.000     33.320  23.000
  321 2.890 2.509  3.271 1.000 1.00000 2.890 1.000     11.363  23.000
  322 2.970 2.581  3.359 1.000 1.00000 2.970 1.000     63.283  23.000
  323 2.860 2.482  3.238 1.000 1.00000 2.860 1.000      8.423  23.000
  324 2.870 2.491  3.249 1.000 1.00000 2.870 1.000     22.598  23.000
  325 2.880 2.500  3.260 1.000 1.00000 2.880 1.000     11.269  23.000
  326 2.870 2.491  3.249 1.000 1.00000 2.870 1.000     19.083  23.000
  327 2.870 2.491  3.249 1.000 1.00000 2.870 1.000      6.672  23.000
  328 2.900 2.518  3.282 1.000 1.00000 2.900 1.000     16.837  23.000
  329 2.930 2.545  3.315 1.000 1.00000 2.930 1.000     32.449  23.000
  330 2.850 2.473  3.227 1.000 1.00000 2.850 1.000     21.944  23.000
  331 2.880 2.500  3.260 1.000 1.00000 2.880 1.000     11.391  23.000
  332 2.950 2.563  3.337 1.000 1.00000 2.950 1.000     29.732  23.000
  333 2.890 2.509  3.271 1.000 1.00000 2.890 1.000     27.177  23.000
  334 2.890 2.509  3.271 1.000 1.00000 2.890 1.000     30.360  23.000
  335 2.890 2.509  3.271 1.000 1.00000 2.890 1.000     26.688  23.000
  336 2.840 2.464  3.216 1.000 1.00000 2.840 1.000      5.544  23.000
  337 2.950 2.563  3.337 1.000 1.00000 2.950 1.000     37.583  23.000
  338 2.860 2.482  3.238 1.000 1.00000 2.860 1.000     10.284  23.000
  339 2.890 2.509  3.271 1.000 1.00000 2.890 1.000     15.596  23.000
  340 2.860 2.482  3.238 1.000 1.00000 2.860 1.000     16.242  23.000
  341 2.860 2.482  3.238 1.000 1.00000 2.860 1.000     10.844  23.000
  342 2.870 2.491  3.249 1.000 1.00000 2.870 1.000     12.920  23.000
  343 2.860 2.482  3.238 1.000 1.00000 2.860 1.000     11.854  23.000
  344 2.910 2.527  3.293 1.000 1.00000 2.910 1.000     28.789  23.000
  345 2.890 2.509  3.271 1.000 1.00000 2.890 1.000     26.688  23.000
  346 2.860 2.482  3.238 1.000 1.00000 2.860 1.000     12.836  23.000
  347 2.870 2.491  3.249 1.000 1.00000 2.870 1.000      8.693  23.000
  348 2.900 2.518  3.282 1.000 1.00000 2.900 1.000     22.665  23.000
  349 2.910 2.527  3.293 1.000 1.00000 2.910 1.000     24.615  23.000
  350 2.870 2.491  3.249 1.000 1.00000 2.870 1.000     42.298  23.000
  351 2.900 2.518  3.282 1.000 1.00000 2.900 1.000     33.194  23.000
  352 2.930 2.545  3.315 1.000 1.00000 2.930 1.000     30.149  23.000
  353 2.890 2.509  3.271 1.000 1.00000 2.890 1.000     18.119  23.000
  354 2.900 2.518  3.282 1.000 1.00000 2.900 1.000     28.561  23.000
  355 2.850 2.473  3.227 1.000 1.00000 2.850 1.000     10.395  23.000
  356 2.920 2.536  3.304 1.000 1.00000 2.920 1.000     11.001  23.000
  357 2.860 2.482  3.238 1.000 1.00000 2.860 1.000     19.620  23.000
  358 2.880 2.500  3.260 1.000 1.00000 2.880 1.000     17.994  23.000
  359 2.860 2.482  3.238 1.000 1.00000 2.860 1.000      5.841  23.000
  360 2.860 2.482  3.238 1.000 1.00000 2.860 1.000     32.047  23.000
  361 2.890 2.509  3.271 1.000 1.00000 2.890 1.000     36.674  23.000
  362 2.860 2.482  3.238 1.000 1.00000 2.860 1.000      5.116  23.000
  363 2.860 2.482  3.238 1.000 1.00000 2.860 1.000     30.767  23.000
  364 2.860 2.482  3.238 1.000 1.00000 2.860 1.000      7.115  23.000
  365 2.890 2.509  3.271 1.000 1.00000 2.890 1.000     28.564  23.000
  366 2.990 2.599  3.381 1.000 1.00000 2.990 1.000     62.749  23.000
  367 2.850 2.473  3.227 1.000 1.00000 2.850 1.000      8.426  23.000
  368 2.850 2.473  3.227 1.000 1.00000 2.850 1.000     13.609  23.000
  369 2.920 2.536  3.304 1.000 1.00000 2.920 1.000     28.535  23.000
  370 2.880 2.500  3.260 1.000 1.00000 2.880 1.000     28.948  23.000
  371 2.850 2.473  3.227 1.000 1.00000 2.850 1.000     10.024  23.000
  372 2.860 2.482  3.238 1.000 1.00000 2.860 1.000     15.221  23.000
  373 2.930 2.545  3.315 1.000 1.00000 2.930 1.000     22.085  23.000
  374 2.860 2.482  3.238 1.000 1.00000 2.860 1.000     21.952  23.000
  375 2.890 2.509  3.271 1.000 1.00000 2.890 1.000      6.116  23.000
  376 2.870 2.491  3.249 1.000 1.00000 2.870 1.000     10.948  23.000
  377 2.880 2.500  3.260 1.000 1.00000 2.880 1.000     26.273  23.000
  378 2.890 2.509  3.271 1.000 1.00000 2.890 1.000     19.926  23.000
  379 2.950 2.563  3.337 1.000 1.00000 2.950 1.000     75.953  23.000
  380 2.920 2.536  3.304 1.000 1.00000 2.920 1.000     13.031  23.000
  381 2.880 2.500  3.260 1.000 1.00000 2.880 1.000      6.333  23.000
  382 2.920 2.536  3.304 1.000 1.00000 2.920 1.000     13.850  23.000
  383 2.860 2.482  3.238 1.000 1.00000 2.860 1.000      7.993  23.000
  384 2.900 2.518  3.282 1.000 1.00000 2.900 1.000     15.385  23.000
  385 2.860 2.482  3.238 1.000 1.00000 2.860 1.000     16.496  23.000
  386 2.870 2.491  3.249 1.000 1.00000 2.870 1.000      6.537  23.000
  387 2.870 2.491  3.249 1.000 1.00000 2.870 1.000     22.546  23.000
  388 2.860 2.482  3.238 1.000 1.00000 2.860 1.000     32.300  23.000
  389 2.890 2.509  3.271 1.000 1.00000 2.890 1.000     11.015  23.000
  390 2.950 2.563  3.337 1.000 1.00000 2.950 1.000     82.441  23.000
  391 2.890 2.509  3.271 1.000 1.00000 2.890 1.000     39.792  23.000
  392 2.860 2.482  3.238 1.000 1.00000 2.860 1.000     11.831  23.000
  393 2.940 2.554  3.326 1.000 1.00000 2.940 1.000     34.730  23.000
  394 2.870 2.491  3.249 1.000 1.00000 2.870 1.000     13.758  23.000
  395 2.880 2.500  3.260 1.000 1.00000 2.880 1.000     20.189  23.000
  396 2.860 2.482  3.238 1.000 1.00000 2.860 1.000      9.499  23.000
  397 2.890 2.509  3.271 1.000 1.00000 2.890 1.000     23.709  23.000
  398 2.870 2.491  3.249 1.000 1.00000 2.870 1.000     19.036  23.000
  399 2.880 2.500  3.260 1.000 1.00000 2.880 1.000     31.482  23.000
  400 2.930 2.545  3.315 1.000 1.00000 2.930 1.000     36.378  23.000
  401 2.860 2.482  3.238 1.000 1.00000 2.860 1.000      6.715  23.000
  402 2.870 2.491  3.249 1.000 1.00000 2.870 1.000      7.560  23.000
  403 2.900 2.518  3.282 1.000 1.00000 2.900 1.000      9.725  23.000
  404 2.860 2.482  3.238 1.000 1.00000 2.860 1.000      3.426  23.000
  405 2.850 2.473  3.227 1.000 1.00000 2.850 1.000      4.144  23.000
  406 2.950 2.563  3.337 1.000 1.00000 2.950 1.000     50.933  23.000
  407 2.890 2.509  3.271 1.000 1.00000 2.890 1.000      6.879  23.000
  408 2.900 2.518  3.282 1.000 1.00000 2.900 1.000     16.446  23.000
  409 2.920 2.536  3.304 1.000 1.00000 2.920 1.000     30.462  23.000
  410 2.850 2.473  3.227 1.000 1.00000 2.850 1.000      6.312  23.000
  411 2.900 2.518  3.282 1.000 1.00000 2.900 1.000     23.368  23.000
  412 2.840 2.464  3.216 1.000 1.00000 2.840 1.000      1.992  23.000
  413 2.860 2.482  3.238 1.000 1.00000 2.860 1.000      3.500  23.000
  414 2.880 2.500  3.260 1.000 1.00000 2.880 1.000     13.676  23.000
  415 2.900 2.518  3.282 1.000 1.00000 2.900 1.000     14.926  23.000
  416 2.910 2.527  3.293 1.000 1.00000 2.910 1.000     17.124  23.000
  417 2.870 2.491  3.249 1.000 1.00000 2.870 1.000     18.735  23.000
  418 2.930 2.545  3.315 1.000 1.00000 2.930 1.000     42.529  23.000
  419 2.890 2.509  3.271 1.000 1.00000 2.890 1.000     11.952  23.000
  420 2.850 2.473  3.227 1.000 1.00000 2.850 1.000     23.338  23.000
  421 2.900 2.518  3.282 1.000 1.00000 2.900 1.000     11.982  23.000
  422 2.930 2.545  3.315 1.000 1.00000 2.930 1.000     41.679  23.000
  423 2.880 2.500  3.260 1.000 1.00000 2.880 1.000      4.922  23.000
  424 2.880 2.500  3.260 1.000 1.00000 2.880 1.000     24.383  23.000
  425 2.850 2.473  3.227 1.000 1.00000 2.850 1.000      5.761  23.000
  426 2.860 2.482  3.238 1.000 1.00000 2.860 1.000      3.844  23.000
  427 2.880 2.500  3.260 1.000 1.00000 2.880 1.000     16.419  23.000
  428 2.890 2.509  3.271 1.000 1.00000 2.890 1.000     14.095  23.000
  429 2.920 2.536  3.304 1.000 1.00000 2.920 1.000     18.782  23.000
  430 2.890 2.509  3.271 1.000 1.00000 2.890 1.000     12.843  23.000
  431 2.920 2.536  3.304 1.000 1.00000 2.920 1.000     28.468  23.000
  432 2.880 2.500  3.260 1.000 1.00000 2.880 1.000      6.738  23.000
  433 2.880 2.500  3.260 1.000 1.00000 2.880 1.000      4.923  23.000
  434 2.880 2.500  3.260 1.000 1.00000 2.880 1.000      8.298  23.000
  435 2.860 2.482  3.238 1.000 1.00000 2.860 1.000     10.312  23.000
  436 2.880 2.500  3.260 1.000 1.00000 2.880 1.000     13.773  23.000
  437 2.950 2.563  3.337 1.000 1.00000 2.950 1.000     70.942  23.000
  438 2.920 2.536  3.304 1.000 1.00000 2.920 1.000     17.784  23.000
  439 2.900 2.518  3.282 1.000 1.00000 2.900 1.000     47.530  23.000
  440 2.850 2.473  3.227 1.000 1.00000 2.850 1.000      8.429  23.000
  441 2.930 2.545  3.315 1.000 1.00000 2.930 1.000     29.802  23.000
  442 2.850 2.473  3.227 1.000 1.00000 2.850 1.000     12.184  23.000
  443 2.870 2.491  3.249 1.000 1.00000 2.870 1.000     19.130  23.000
  444 2.860 2.482  3.238 1.000 1.00000 2.860 1.000     36.438  23.000
  445 2.920 2.536  3.304 1.000 1.00000 2.920 1.000     25.776  23.000
  446 2.900 2.518  3.282 1.000 1.00000 2.900 1.000     22.469  23.000
  447 2.910 2.527  3.293 1.000 1.00000 2.910 1.000     24.766  23.000
  448 2.950 2.563  3.337 1.000 1.00000 2.950 1.000     16.873  23.000
  449 2.860 2.482  3.238 1.000 1.00000 2.860 1.000     16.746  23.000
  450 2.880 2.500  3.260 1.000 1.00000 2.880 1.000     17.962  23.000
  451 2.890 2.509  3.271 1.000 1.00000 2.890 1.000     14.087  23.000
  452 2.940 2.554  3.326 1.000 1.00000 2.940 1.000     41.198  23.000
  453 2.890 2.509  3.271 1.000 1.00000 2.890 1.000     11.682  23.000
  454 2.860 2.482  3.238 1.000 1.00000 2.860 1.000      6.205  23.000
  455 2.850 2.473  3.227 1.000 1.00000 2.850 1.000      5.209  23.000
  456 2.920 2.536  3.304 1.000 1.00000 2.920 1.000     32.067  23.000
  457 2.860 2.482  3.238 1.000 1.00000 2.860 1.000     13.216  23.000
  458 2.870 2.491  3.249 1.000 1.00000 2.870 1.000     18.705  23.000
  459 2.920 2.536  3.304 1.000 1.00000 2.920 1.000     17.982  23.000
  460 2.850 2.473  3.227 1.000 1.00000 2.850 1.000     10.105  23.000
  461 2.880 2.500  3.260 1.000 1.00000 2.880 1.000     13.691  23.000
  462 2.930 2.545  3.315 1.000 1.00000 2.930 1.000     17.374  23.000
  463 2.920 2.536  3.304 1.000 1.00000 2.920 1.000     20.882  23.000
  464 2.890 2.509  3.271 1.000 1.00000 2.890 1.000     17.565  23.000
  465 2.920 2.536  3.304 1.000 1.00000 2.920 1.000     11.571  23.000
  466 2.850 2.473  3.227 1.000 1.00000 2.850 1.000      7.733  23.000
  467 2.940 2.554  3.326 1.000 1.00000 2.940 1.000     33.743  23.000
  468 2.920 2.536  3.304 1.000 1.00000 2.920 1.000     22.202  23.000
  469 2.880 2.500  3.260 1.000 1.00000 2.880 1.000     17.792  23.000
  470 2.950 2.563  3.337 1.000 1.00000 2.950 1.000     56.989  23.000
  471 2.860 2.482  3.238 1.000 1.00000 2.860 1.000     11.829  23.000
  472 2.920 2.536  3.304 1.000 1.00000 2.920 1.000     20.576  23.000
  473 2.850 2.473  3.227 1.000 1.00000 2.850 1.000     18.096  23.000
  474 2.900 2.518  3.282 1.000 1.00000 2.900 1.000     35.835  23.000
  475 2.860 2.482  3.238 1.000 1.00000 2.860 1.000     16.101  23.000
  476 2.860 2.482  3.238 1.000 1.00000 2.860 1.000      6.010  23.000
  477 2.930 2.545  3.315 1.000 1.00000 2.930 1.000     17.951  23.000
  478 2.850 2.473  3.227 1.000 1.00000 2.850 1.000     10.917  23.000
  479 2.860 2.482  3.238 1.000 1.00000 2.860 1.000     24.725  23.000
  480 2.930 2.545  3.315 1.000 1.00000 2.930 1.000     27.829  23.000
  481 2.850 2.473  3.227 1.000 1.00000 2.850 1.000     18.315  23.000
  482 2.900 2.518  3.282 1.000 1.00000 2.900 1.000     16.939  23.000
  483 2.900 2.518  3.282 1.000 1.00000 2.900 1.000     13.226  23.000
  484 2.950 2.563  3.337 1.000 1.00000 2.950 1.000     63.571  23.000
  485 2.880 2.500  3.260 1.000 1.00000 2.880 1.000     10.346  23.000
  486 2.860 2.482  3.238 1.000 1.00000 2.860 1.000     30.256  23.000
  487 2.890 2.509  3.271 1.000 1.00000 2.890 1.000     10.711  23.000
  488 2.880 2.500  3.260 1.000 1.00000 2.880 1.000      4.948  23.000
  489 2.950 2.563  3.337 1.000 1.00000 2.950 1.000     63.659  23.000
  490 2.970 2.581  3.359 1.000 1.00000 2.970 1.000     59.741  23.000
  491 2.880 2.500  3.260 1.000 1.00000 2.880 1.000      5.019  23.000
  492 2.870 2.491  3.249 1.000 1.00000 2.870 1.000     11.909  23.000
  493 2.910 2.527  3.293 1.000 1.00000 2.910 1.000     24.900  23.000
  494 2.920 2.536  3.304 1.000 1.00000 2.920 1.000     32.607  23.000
  495 2.860 2.482  3.238 1.000 1.00000 2.860 1.000     29.143  23.000
  496 2.930 2.545  3.315 1.000 1.00000 2.930 1.000     16.471  23.000
  497 2.860 2.482  3.238 1.000 1.00000 2.860 1.000      5.012  23.000
  498 2.910 2.527  3.293 1.000 1.00000 2.910 1.000     15.876  23.000
  499 2.880 2.500  3.260 1.000 1.00000 2.880 1.000     17.588  23.000
  500 2.880 2.500  3.260 1.000 1.00000 2.880 1.000      7.255  23.000
  501 2.860 2.482  3.238 1.000 1.00000 2.860 1.000      4.684  23.000
  502 2.910 2.527  3.293 1.000 1.00000 2.910 1.000     15.362  23.000
  503 2.930 2.545  3.315 1.000 1.00000 2.930 1.000     15.714  23.000
  504 2.830 2.455  3.205 1.000 1.00000 2.830 1.000      4.041  23.000
  505 2.900 2.518  3.282 1.000 1.00000 2.900 1.000     36.049  23.000
  506 2.870 2.491  3.249 1.000 1.00000 2.870 1.000     21.468  23.000
  507 2.850 2.473  3.227 1.000 1.00000 2.850 1.000      8.250  23.000
  508 2.890 2.509  3.271 1.000 1.00000 2.890 1.000     28.428  23.000
  509 2.860 2.482  3.238 1.000 1.00000 2.860 1.000      6.992  23.000
  510 2.910 2.527  3.293 1.000 1.00000 2.910 1.000     16.175  23.000
  511 2.890 2.509  3.271 1.000 1.00000 2.890 1.000     16.249  23.000
  512 2.950 2.563  3.337 1.000 1.00000 2.950 1.000     20.623  23.000
  513 2.940 2.554  3.326 1.000 1.00000 2.940 1.000     51.929  23.000
  514 2.850 2.473  3.227 1.000 1.00000 2.850 1.000      4.334  23.000
  515 2.860 2.482  3.238 1.000 1.00000 2.860 1.000      8.667  23.000
  516 2.870 2.491  3.249 1.000 1.00000 2.870 1.000      5.467  23.000
  517 2.880 2.500  3.260 1.000 1.00000 2.880 1.000     14.573  23.000
  518 2.890 2.509  3.271 1.000 1.00000 2.890 1.000     29.678  23.000
  519 2.920 2.536  3.304 1.000 1.00000 2.920 1.000     19.448  23.000
  520 2.910 2.527  3.293 1.000 1.00000 2.910 1.000     13.354  23.000
  521 2.920 2.536  3.304 1.000 1.00000 2.920 1.000     15.291  23.000
  522 2.880 2.500  3.260 1.000 1.00000 2.880 1.000     52.005  23.000
  523 2.880 2.500  3.260 1.000 1.00000 2.880 1.000     13.092  23.000
  524 2.860 2.482  3.238 1.000 1.00000 2.860 1.000      3.852  23.000
  525 2.860 2.482  3.238 1.000 1.00000 2.860 1.000      6.242  23.000
  526 2.890 2.509  3.271 1.000 1.00000 2.890 1.000     16.049  23.000
  527 2.880 2.500  3.260 1.000 1.00000 2.880 1.000     29.187  23.000
  528 2.890 2.509  3.271 1.000 1.00000 2.890 1.000     11.191  23.000
  529 2.860 2.482  3.238 1.000 1.00000 2.860 1.000      6.066  23.000
  530 2.860 2.482  3.238 1.000 1.00000 2.860 1.000     17.851  23.000
  531 2.930 2.545  3.315 1.000 1.00000 2.930 1.000     16.325  23.000
  532 2.860 2.482  3.238 1.000 1.00000 2.860 1.000     22.449  23.000
  533 2.880 2.500  3.260 1.000 1.00000 2.880 1.000     41.780  23.000
  534 2.860 2.482  3.238 1.000 1.00000 2.860 1.000      7.393  23.000
  535 2.890 2.509  3.271 1.000 1.00000 2.890 1.000      7.531  23.000
  536 2.920 2.536  3.304 1.000 1.00000 2.920 1.000     16.720  23.000
  537 2.870 2.491  3.249 1.000 1.00000 2.870 1.000      8.470  23.000
  538 2.920 2.536  3.304 1.000 1.00000 2.920 1.000     11.800  23.000
  539 2.950 2.563  3.337 1.000 1.00000 2.950 1.000     23.316  23.000
  540 2.930 2.545  3.315 1.000 1.00000 2.930 1.000     27.963  23.000
  541 2.930 2.545  3.315 1.000 1.00000 2.930 1.000     50.050  23.000
  542 2.910 2.527  3.293 1.000 1.00000 2.910 1.000     40.531  23.000
  543 2.880 2.500  3.260 1.000 1.00000 2.880 1.000     14.495  23.000
  544 2.860 2.482  3.238 1.000 1.00000 2.860 1.000     27.066  23.000
  545 2.870 2.491  3.249 1.000 1.00000 2.870 1.000     12.999  23.000
  546 2.840 2.464  3.216 1.000 1.00000 2.840 1.000      2.020  23.000
  547 2.850 2.473  3.227 1.000 1.00000 2.850 1.000     15.058  23.000
  548 2.920 2.536  3.304 1.000 1.00000 2.920 1.000     34.436  23.000
  549 2.900 2.518  3.282 1.000 1.00000 2.900 1.000     28.481  23.000
  550 2.880 2.500  3.260 1.000 1.00000 2.880 1.000     25.491  23.000
  551 2.910 2.527  3.293 1.000 1.00000 2.910 1.000     37.955  23.000
  552 2.900 2.518  3.282 1.000 1.00000 2.900 1.000     16.901  23.000
  553 2.860 2.482  3.238 1.000 1.00000 2.860 1.000     12.161  23.000
  554 2.890 2.509  3.271 1.000 1.00000 2.890 1.000     15.319  23.000
  555 2.880 2.500  3.260 1.000 1.00000 2.880 1.000     24.341  23.000
  556 2.930 2.545  3.315 1.000 1.00000 2.930 1.000     15.751  23.000
  557 2.890 2.509  3.271 1.000 1.00000 2.890 1.000     23.483  23.000
  558 2.870 2.491  3.249 1.000 1.00000 2.870 1.000     31.780  23.000
  559 2.860 2.482  3.238 1.000 1.00000 2.860 1.000      6.022  23.000
  560 2.920 2.536  3.304 1.000 1.00000 2.920 1.000     34.228  23.000
  561 2.860 2.482  3.238 1.000 1.00000 2.860 1.000      4.793  23.000
  562 2.940 2.554  3.326 1.000 1.00000 2.940 1.000     19.916  23.000
  563 2.880 2.500  3.260 1.000 1.00000 2.880 1.000     11.923  23.000
  564 2.900 2.518  3.282 1.000 1.00000 2.900 1.000     20.211  23.000
  565 2.950 2.563  3.337 1.000 1.00000 2.950 1.000     26.313  23.000
  566 2.900 2.518  3.282 1.000 1.00000 2.900 1.000     31.145  23.000
  567 2.860 2.482  3.238 1.000 1.00000 2.860 1.000     17.451  23.000
  568 2.930 2.545  3.315 1.000 1.00000 2.930 1.000     37.741  23.000
  569 2.870 2.491  3.249 1.000 1.00000 2.870 1.000     11.318  23.000
  570 2.860 2.482  3.238 1.000 1.00000 2.860 1.000      8.333  23.000
  571 2.900 2.518  3.282 1.000 1.00000 2.900 1.000     14.662  23.000
  572 2.900 2.518  3.282 1.000 1.00000 2.900 1.000     10.853  23.000
  573 2.910 2.527  3.293 1.000 1.00000 2.910 1.000     23.308  23.000
  574 2.940 2.554  3.326 1.000 1.00000 2.940 1.000     15.056  23.000
  575 2.920 2.536  3.304 1.000 1.00000 2.920 1.000     28.787  23.000
  576 2.850 2.473  3.227 1.000 1.00000 2.850 1.000      9.490  23.000
  577 2.850 2.473  3.227 1.000 1.00000 2.850 1.000     13.734  23.000
  578 2.870 2.491  3.249 1.000 1.00000 2.870 1.000      4.572  23.000
  579 2.860 2.482  3.238 1.000 1.00000 2.860 1.000     12.508  23.000
  580 2.850 2.473  3.227 1.000 1.00000 2.850 1.000     11.826  23.000
  581 2.850 2.473  3.227 1.000 1.00000 2.850 1.000      6.703  23.000
  582 2.850 2.473  3.227 1.000 1.00000 2.850 1.000     12.910  23.000
  583 2.860 2.482  3.238 1.000 1.00000 2.860 1.000     18.573  23.000
  584 2.850 2.473  3.227 1.000 1.00000 2.850 1.000     13.677  23.000
  585 2.860 2.482  3.238 1.000 1.00000 2.860 1.000     24.819  23.000
  586 2.880 2.500  3.260 1.000 1.00000 2.880 1.000      8.627  23.000
  587 2.900 2.518  3.282 1.000 1.00000 2.900 1.000     27.366  23.000
  588 2.920 2.536  3.304 1.000 1.00000 2.920 1.000     14.665  23.000
  589 2.890 2.509  3.271 1.000 1.00000 2.890 1.000     19.955  23.000
  590 2.900 2.518  3.282 1.000 1.00000 2.900 1.000     37.114  23.000
  591 2.920 2.536  3.304 1.000 1.00000 2.920 1.000     42.073  23.000
  592 2.850 2.473  3.227 1.000 1.00000 2.850 1.000      7.953  23.000
  593 2.860 2.482  3.238 1.000 1.00000 2.860 1.000     12.065  23.000
  594 2.960 2.572  3.348 1.000 1.00000 2.960 1.000     93.047  23.000
  595 2.880 2.500  3.260 1.000 1.00000 2.880 1.000      6.607  23.000
  596 2.850 2.473  3.227 1.000 1.00000 2.850 1.000     11.691  23.000
  597 2.860 2.482  3.238 1.000 1.00000 2.860 1.000     18.343  23.000
  598 2.920 2.536  3.304 1.000 1.00000 2.920 1.000     14.538  23.000
  599 2.890 2.509  3.271 1.000 1.00000 2.890 1.000      7.347  23.000
  600 2.930 2.545  3.315 1.000 1.00000 2.930 1.000     20.674  23.000
  601 2.870 2.491  3.249 1.000 1.00000 2.870 1.000     15.549  23.000
  602 2.890 2.509  3.271 1.000 1.00000 2.890 1.000     12.285  23.000
  603 2.910 2.527  3.293 1.000 1.00000 2.910 1.000     12.847  23.000
  604 2.860 2.482  3.238 1.000 1.00000 2.860 1.000     13.553  23.000
  605 2.900 2.518  3.282 1.000 1.00000 2.900 1.000     28.433  23.000
  606 2.860 2.482  3.238 1.000 1.00000 2.860 1.000     20.443  23.000
  607 2.910 2.527  3.293 1.000 1.00000 2.910 1.000     23.243  23.000
  608 2.850 2.473  3.227 1.000 1.00000 2.850 1.000     19.127  23.000
  609 2.840 2.464  3.216 1.000 1.00000 2.840 1.000      4.556  23.000
  610 2.940 2.554  3.326 1.000 1.00000 2.940 1.000     49.637  23.000
  611 2.870 2.491  3.249 1.000 1.00000 2.870 1.000     14.606  23.000
  612 2.900 2.518  3.282 1.000 1.00000 2.900 1.000     18.381  23.000
  613 2.920 2.536  3.304 1.000 1.00000 2.920 1.000     25.628  23.000
  614 2.910 2.527  3.293 1.000 1.00000 2.910 1.000     26.495  23.000
  615 2.880 2.500  3.260 1.000 1.00000 2.880 1.000     27.145  23.000
  616 2.900 2.518  3.282 1.000 1.00000 2.900 1.000     16.903  23.000
  617 2.920 2.536  3.304 1.000 1.00000 2.920 1.000     28.646  23.000
  618 2.870 2.491  3.249 1.000 1.00000 2.870 1.000     36.984  23.000
  619 2.890 2.509  3.271 1.000 1.00000 2.890 1.000     18.633  23.000
  620 2.940 2.554  3.326 1.000 1.00000 2.940 1.000     30.985  23.000
  621 2.890 2.509  3.271 1.000 1.00000 2.890 1.000     19.781  23.000
  622 2.860 2.482  3.238 1.000 1.00000 2.860 1.000     26.866  23.000
  623 2.910 2.527  3.293 1.000 1.00000 2.910 1.000     24.291  23.000
  624 2.850 2.473  3.227 1.000 1.00000 2.850 1.000     11.921  23.000
  625 2.870 2.491  3.249 1.000 1.00000 2.870 1.000     12.590  23.000
  626 2.850 2.473  3.227 1.000 1.00000 2.850 1.000     25.392  23.000
  627 2.880 2.500  3.260 1.000 1.00000 2.880 1.000     16.332  23.000
  628 2.910 2.527  3.293 1.000 1.00000 2.910 1.000     25.363  23.000
  629 2.890 2.509  3.271 1.000 1.00000 2.890 1.000     26.279  23.000
  630 2.870 2.491  3.249 1.000 1.00000 2.870 1.000     50.564  23.000
  631 2.860 2.482  3.238 1.000 1.00000 2.860 1.000     10.351  23.000
  632 2.900 2.518  3.282 1.000 1.00000 2.900 1.000     12.758  23.000
  633 2.920 2.536  3.304 1.000 1.00000 2.920 1.000     24.138  23.000
  634 2.880 2.500  3.260 1.000 1.00000 2.880 1.000      7.145  23.000
  635 2.900 2.518  3.282 1.000 1.00000 2.900 1.000     29.322  23.000
  636 2.890 2.509  3.271 1.000 1.00000 2.890 1.000     28.464  23.000
  637 2.850 2.473  3.227 1.000 1.00000 2.850 1.000      9.813  23.000
  638 2.910 2.527  3.293 1.000 1.00000 2.910 1.000     34.964  23.000
  639 2.920 2.536  3.304 1.000 1.00000 2.920 1.000     17.936  23.000
  640 2.880 2.500  3.260 1.000 1.00000 2.880 1.000      5.191  23.000
  641 2.860 2.482  3.238 1.000 1.00000 2.860 1.000     11.023  23.000
  642 2.880 2.500  3.260 1.000 1.00000 2.880 1.000      8.610  23.000
  643 2.900 2.518  3.282 1.000 1.00000 2.900 1.000     15.455  23.000
  644 2.890 2.509  3.271 1.000 1.00000 2.890 1.000     12.386  23.000
  645 2.940 2.554  3.326 1.000 1.00000 2.940 1.000     22.417  23.000
  646 2.910 2.527  3.293 1.000 1.00000 2.910 1.000     11.547  23.000
  647 2.920 2.536  3.304 1.000 1.00000 2.920 1.000     14.945  23.000
  648 2.860 2.482  3.238 1.000 1.00000 2.860 1.000     14.526  23.000
  649 2.890 2.509  3.271 1.000 1.00000 2.890 1.000     49.185  23.000
  650 2.940 2.554  3.326 1.000 1.00000 2.940 1.000     37.279  23.000
  651 2.850 2.473  3.227 1.000 1.00000 2.850 1.000     12.216  23.000
  652 2.880 2.500  3.260 1.000 1.00000 2.880 1.000     15.350  23.000
  653 2.920 2.536  3.304 1.000 1.00000 2.920 1.000     22.947  23.000
  654 2.900 2.518  3.282 1.000 1.00000 2.900 1.000     39.814  23.000
  655 2.860 2.482  3.238 1.000 1.00000 2.860 1.000     24.723  23.000
  656 2.940 2.554  3.326 1.000 1.00000 2.940 1.000     22.481  23.000
  657 2.850 2.473  3.227 1.000 1.00000 2.850 1.000     24.953  23.000
  658 2.860 2.482  3.238 1.000 1.00000 2.860 1.000     15.649  23.000
  659 2.920 2.536  3.304 1.000 1.00000 2.920 1.000     19.637  23.000
  660 2.860 2.482  3.238 1.000 1.00000 2.860 1.000      9.890  23.000
  661 2.940 2.554  3.326 1.000 1.00000 2.940 1.000     44.505  23.000
  662 2.920 2.536  3.304 1.000 1.00000 2.920 1.000     45.844  23.000
  663 2.930 2.545  3.315 1.000 1.00000 2.930 1.000     21.499  23.000
  664 2.860 2.482  3.238 1.000 1.00000 2.860 1.000      5.846  23.000
  665 2.900 2.518  3.282 1.000 1.00000 2.900 1.000     16.110  23.000
  666 2.900 2.518  3.282 1.000 1.00000 2.900 1.000     10.344  23.000
  667 2.870 2.491  3.249 1.000 1.00000 2.870 1.000     29.513  23.000
  668 2.860 2.482  3.238 1.000 1.00000 2.860 1.000     18.322  23.000
  669 2.880 2.500  3.260 1.000 1.00000 2.880 1.000      7.521  23.000
  670 2.880 2.500  3.260 1.000 1.00000 2.880 1.000     34.351  23.000
  671 2.880 2.500  3.260 1.000 1.00000 2.880 1.000      5.371  23.000
  672 2.840 2.464  3.216 1.000 1.00000 2.840 1.000      2.276  23.000
  673 2.870 2.491  3.249 1.000 1.00000 2.870 1.000     22.869  23.000
  674 2.860 2.482  3.238 1.000 1.00000 2.860 1.000     43.023  23.000
  675 2.860 2.482  3.238 1.000 1.00000 2.860 1.000      4.376  23.000
  676 2.890 2.509  3.271 1.000 1.00000 2.890 1.000     48.072  23.000
  677 2.960 2.572  3.348 1.000 1.00000 2.960 1.000     76.268  23.000
  678 2.880 2.500  3.260 1.000 1.00000 2.880 1.000     15.433  23.000
  679 2.860 2.482  3.238 1.000 1.00000 2.860 1.000     11.651  23.000
  680 2.860 2.482  3.238 1.000 1.00000 2.860 1.000      7.055  23.000
  681 2.850 2.473  3.227 1.000 1.00000 2.850 1.000      4.415  23.000
  682 2.950 2.563  3.337 1.000 1.00000 2.950 1.000     40.445  23.000
  683 2.890 2.509  3.271 1.000 1.00000 2.890 1.000     17.003  23.000
  684 2.920 2.536  3.304 1.000 1.00000 2.920 1.000     51.912  23.000
  685 2.870 2.491  3.249 1.000 1.00000 2.870 1.000     39.203  23.000
  686 2.860 2.482  3.238 1.000 1.00000 2.860 1.000      6.798  23.000
  687 2.870 2.491  3.249 1.000 1.00000 2.870 1.000      7.457  23.000
  688 2.860 2.482  3.238 1.000 1.00000 2.860 1.000     20.725  23.000
  689 2.850 2.473  3.227 1.000 1.00000 2.850 1.000      4.686  23.000
  690 2.850 2.473  3.227 1.000 1.00000 2.850 1.000      9.882  23.000
  691 2.910 2.527  3.293 1.000 1.00000 2.910 1.000     24.328  23.000
  692 2.940 2.554  3.326 1.000 1.00000 2.940 1.000     29.144  23.000
  693 2.930 2.545  3.315 1.000 1.00000 2.930 1.000     29.955  23.000
  694 2.900 2.518  3.282 1.000 1.00000 2.900 1.000      9.243  23.000
  695 2.860 2.482  3.238 1.000 1.00000 2.860 1.000     25.016  23.000
  696 2.850 2.473  3.227 1.000 1.00000 2.850 1.000      8.676  23.000
  697 2.890 2.509  3.271 1.000 1.00000 2.890 1.000     18.067  23.000
  698 2.940 2.554  3.326 1.000 1.00000 2.940 1.000     21.200  23.000
  699 2.910 2.527  3.293 1.000 1.00000 2.910 1.000     25.723  23.000
  700 2.940 2.554  3.326 1.000 1.00000 2.940 1.000     30.420  23.000
  701 2.870 2.491  3.249 1.000 1.00000 2.870 1.000      7.300  23.000
  702 2.900 2.518  3.282 1.000 1.00000 2.900 1.000     11.707  23.000
  703 2.840 2.464  3.216 1.000 1.00000 2.840 1.000      2.421  23.000
  704 2.870 2.491  3.249 1.000 1.00000 2.870 1.000      9.202  23.000
  705 2.900 2.518  3.282 1.000 1.00000 2.900 1.000     23.515  23.000
  706 2.940 2.554  3.326 1.000 1.00000 2.940 1.000     30.144  23.000
  707 2.900 2.518  3.282 1.000 1.00000 2.900 1.000     23.345  23.000
  708 2.900 2.518  3.282 1.000 1.00000 2.900 1.000     33.131  23.000
  709 2.860 2.482  3.238 1.000 1.00000 2.860 1.000     18.227  23.000
  710 2.870 2.491  3.249 1.000 1.00000 2.870 1.000      8.794  23.000
  711 2.850 2.473  3.227 1.000 1.00000 2.850 1.000     11.336  23.000
  712 2.900 2.518  3.282 1.000 1.00000 2.900 1.000     34.451  23.000
  713 2.860 2.482  3.238 1.000 1.00000 2.860 1.000     15.157  23.000
  714 2.870 2.491  3.249 1.000 1.00000 2.870 1.000     29.536  23.000
  715 2.860 2.482  3.238 1.000 1.00000 2.860 1.000     15.919  23.000
  716 2.850 2.473  3.227 1.000 1.00000 2.850 1.000     14.412  23.000
  717 2.880 2.500  3.260 1.000 1.00000 2.880 1.000     13.075  23.000
  718 2.950 2.563  3.337 1.000 1.00000 2.950 1.000     44.735  23.000
  719 2.910 2.527  3.293 1.000 1.00000 2.910 1.000     43.817  23.000
  720 2.850 2.473  3.227 1.000 1.00000 2.850 1.000      5.805  23.000
  721 2.880 2.500  3.260 1.000 1.00000 2.880 1.000      5.083  23.000
  722 2.900 2.518  3.282 1.000 1.00000 2.900 1.000     28.790  23.000
  723 2.900 2.518  3.282 1.000 1.00000 2.900 1.000     17.773  23.000
  724 2.890 2.509  3.271 1.000 1.00000 2.890 1.000     33.994  23.000
  725 2.900 2.518  3.282 1.000 1.00000 2.900 1.000     15.147  23.000
  726 2.860 2.482  3.238 1.000 1.00000 2.860 1.000     15.888  23.000
  727 2.850 2.473  3.227 1.000 1.00000 2.850 1.000      7.718  23.000
  728 2.920 2.536  3.304 1.000 1.00000 2.920 1.000     11.871  23.000
  729 2.870 2.491  3.249 1.000 1.00000 2.870 1.000      8.836  23.000
  730 2.910 2.527  3.293 1.000 1.00000 2.910 1.000     31.242  23.000
  731 2.940 2.554  3.326 1.000 1.00000 2.940 1.000     45.609  23.000
  732 2.850 2.473  3.227 1.000 1.00000 2.850 1.000     21.814  23.000
  733 2.850 2.473  3.227 1.000 1.00000 2.850 1.000     15.978  23.000
  734 2.880 2.500  3.260 1.000 1.00000 2.880 1.000     24.913  23.000
  735 2.860 2.482  3.238 1.000 1.00000 2.860 1.000     25.247  23.000
  736 2.820 2.446  3.194 1.000 1.00000 2.820 1.000      1.292  23.000
  737 2.890 2.509  3.271 1.000 1.00000 2.890 1.000     26.153  23.000
  738 2.850 2.473  3.227 1.000 1.00000 2.850 1.000     22.047  23.000
  739 2.900 2.518  3.282 1.000 1.00000 2.900 1.000     23.371  23.000
  740 2.910 2.527  3.293 1.000 1.00000 2.910 1.000     37.015  23.000
  741 2.900 2.518  3.282 1.000 1.00000 2.900 1.000     18.549  23.000
  742 2.890 2.509  3.271 1.000 1.00000 2.890 1.000     11.647  23.000
  743 2.890 2.509  3.271 1.000 1.00000 2.890 1.000     22.017  23.000
  744 2.890 2.509  3.271 1.000 1.00000 2.890 1.000      7.434  23.000
  745 2.940 2.554  3.326 1.000 1.00000 2.940 1.000     25.942  23.000
  746 2.860 2.482  3.238 1.000 1.00000 2.860 1.000     11.447  23.000
  747 2.870 2.491  3.249 1.000 1.00000 2.870 1.000     13.376  23.000
  748 2.890 2.509  3.271 1.000 1.00000 2.890 1.000     16.409  23.000
  749 2.890 2.509  3.271 1.000 1.00000 2.890 1.000     28.223  23.000
  750 2.940 2.554  3.326 1.000 1.00000 2.940 1.000     25.284  23.000
  751 2.880 2.500  3.260 1.000 1.00000 2.880 1.000     18.343  23.000
  752 2.870 2.491  3.249 1.000 1.00000 2.870 1.000     17.821  23.000
  753 2.890 2.509  3.271 1.000 1.00000 2.890 1.000     25.556  23.000
  754 2.880 2.500  3.260 1.000 1.00000 2.880 1.000      7.851  23.000
  755 2.850 2.473  3.227 1.000 1.00000 2.850 1.000      9.437  23.000
  756 2.850 2.473  3.227 1.000 1.00000 2.850 1.000     11.943  23.000
  757 2.860 2.482  3.238 1.000 1.00000 2.860 1.000     13.745  23.000
  758 2.900 2.518  3.282 1.000 1.00000 2.900 1.000     28.895  23.000
  759 2.850 2.473  3.227 1.000 1.00000 2.850 1.000     16.696  23.000
  760 2.920 2.536  3.304 1.000 1.00000 2.920 1.000     60.285  23.000
  761 2.950 2.563  3.337 1.000 1.00000 2.950 1.000     30.805  23.000
  762 2.860 2.482  3.238 1.000 1.00000 2.860 1.000      5.600  23.000
  763 2.880 2.500  3.260 1.000 1.00000 2.880 1.000     50.054  23.000
  764 2.900 2.518  3.282 1.000 1.00000 2.900 1.000     15.450  23.000
  765 2.870 2.491  3.249 1.000 1.00000 2.870 1.000     19.286  23.000
  766 2.870 2.491  3.249 1.000 1.00000 2.870 1.000      4.483  23.000
  767 2.860 2.482  3.238 1.000 1.00000 2.860 1.000     11.240  23.000
  768 2.910 2.527  3.293 1.000 1.00000 2.910 1.000     47.203  23.000
  769 2.850 2.473  3.227 1.000 1.00000 2.850 1.000     16.223  23.000
  770 2.910 2.527  3.293 1.000 1.00000 2.910 1.000     22.870  23.000
  771 2.890 2.509  3.271 1.000 1.00000 2.890 1.000     10.718  23.000
  772 2.900 2.518  3.282 1.000 1.00000 2.900 1.000     16.957  23.000
  773 2.870 2.491  3.249 1.000 1.00000 2.870 1.000     14.638  23.000
  774 2.880 2.500  3.260 1.000 1.00000 2.880 1.000     21.355  23.000
  775 2.950 2.563  3.337 1.000 1.00000 2.950 1.000     21.024  23.000
  776 2.860 2.482  3.238 1.000 1.00000 2.860 1.000     16.687  23.000
  777 2.850 2.473  3.227 1.000 1.00000 2.850 1.000     29.919  23.000
  778 2.870 2.491  3.249 1.000 1.00000 2.870 1.000     12.845  23.000
  779 2.950 2.563  3.337 1.000 1.00000 2.950 1.000     89.204  23.000
  780 2.910 2.527  3.293 1.000 1.00000 2.910 1.000     41.124  23.000
  781 2.860 2.482  3.238 1.000 1.00000 2.860 1.000     24.535  23.000
  782 2.890 2.509  3.271 1.000 1.00000 2.890 1.000     35.840  23.000
  783 2.890 2.509  3.271 1.000 1.00000 2.890 1.000     42.423  23.000
  784 2.850 2.473  3.227 1.000 1.00000 2.850 1.000     15.697  23.000
  785 2.960 2.572  3.348 1.000 1.00000 2.960 1.000     41.918  23.000
  786 2.880 2.500  3.260 1.000 1.00000 2.880 1.000      9.764  23.000
  787 2.850 2.473  3.227 1.000 1.00000 2.850 1.000     11.353  23.000
  788 2.860 2.482  3.238 1.000 1.00000 2.860 1.000     12.651  23.000
  789 2.860 2.482  3.238 1.000 1.00000 2.860 1.000      6.989  23.000
  790 2.890 2.509  3.271 1.000 1.00000 2.890 1.000     13.351  23.000
  791 2.850 2.473  3.227 1.000 1.00000 2.850 1.000     19.035  23.000
  792 2.930 2.545  3.315 1.000 1.00000 2.930 1.000     44.093  23.000
  793 2.900 2.518  3.282 1.000 1.00000 2.900 1.000     25.345  23.000
  794 2.890 2.509  3.271 1.000 1.00000 2.890 1.000     22.228  23.000
  795 2.900 2.518  3.282 1.000 1.00000 2.900 1.000      7.915  23.000
  796 2.860 2.482  3.238 1.000 1.00000 2.860 1.000      7.793  23.000
  797 2.850 2.473  3.227 1.000 1.00000 2.850 1.000     19.309  23.000
  798 2.880 2.500  3.260 1.000 1.00000 2.880 1.000     14.547  23.000
  799 2.870 2.491  3.249 1.000 1.00000 2.870 1.000     16.917  23.000
  800 2.910 2.527  3.293 1.000 1.00000 2.910 1.000     41.704  23.000
  801 2.910 2.527  3.293 1.000 1.00000 2.910 1.000     21.462  23.000
  802 2.860 2.482  3.238 1.000 1.00000 2.860 1.000     26.777  23.000
  803 2.860 2.482  3.238 1.000 1.00000 2.860 1.000     43.207  23.000
  804 2.890 2.509  3.271 1.000 1.00000 2.890 1.000     14.028  23.000
  805 2.860 2.482  3.238 1.000 1.00000 2.860 1.000      4.336  23.000
  806 2.910 2.527  3.293 1.000 1.00000 2.910 1.000     21.513  23.000
  807 2.860 2.482  3.238 1.000 1.00000 2.860 1.000     15.176  23.000
  808 2.920 2.536  3.304 1.000 1.00000 2.920 1.000     60.515  23.000
  809 2.890 2.509  3.271 1.000 1.00000 2.890 1.000     15.028  23.000
  810 2.950 2.563  3.337 1.000 1.00000 2.950 1.000     20.650  23.000
  811 2.940 2.554  3.326 1.000 1.00000 2.940 1.000     48.911  23.000
  812 2.890 2.509  3.271 1.000 1.00000 2.890 1.000     14.766  23.000
  813 2.830 2.455  3.205 1.000 1.00000 2.830 1.000      5.290  23.000
  814 2.880 2.500  3.260 1.000 1.00000 2.880 1.000     24.182  23.000
  815 2.940 2.554  3.326 1.000 1.00000 2.940 1.000     22.650  23.000
  816 2.890 2.509  3.271 1.000 1.00000 2.890 1.000     33.189  23.000
  817 2.860 2.482  3.238 1.000 1.00000 2.860 1.000      3.409  23.000
  818 2.930 2.545  3.315 1.000 1.00000 2.930 1.000     19.816  23.000
  819 2.860 2.482  3.238 1.000 1.00000 2.860 1.000      5.710  23.000
  820 2.870 2.491  3.249 1.000 1.00000 2.870 1.000     28.494  23.000
  821 2.920 2.536  3.304 1.000 1.00000 2.920 1.000     13.488  23.000
  822 2.900 2.518  3.282 1.000 1.00000 2.900 1.000     19.463  23.000
  823 2.900 2.518  3.282 1.000 1.00000 2.900 1.000     25.638  23.000
  824 2.860 2.482  3.238 1.000 1.00000 2.860 1.000     27.202  23.000
  825 2.950 2.563  3.337 1.000 1.00000 2.950 1.000     45.745  23.000
  826 2.850 2.473  3.227 1.000 1.00000 2.850 1.000     14.361  23.000
  827 2.860 2.482  3.238 1.000 1.00000 2.860 1.000     12.196  23.000
  828 2.850 2.473  3.227 1.000 1.00000 2.850 1.000     12.132  23.000
  829 2.920 2.536  3.304 1.000 1.00000 2.920 1.000     22.807  23.000
  830 2.870 2.491  3.249 1.000 1.00000 2.870 1.000     12.203  23.000
  831 2.900 2.518  3.282 1.000 1.00000 2.900 1.000     18.598  23.000
  832 2.850 2.473  3.227 1.000 1.00000 2.850 1.000      9.868  23.000
  833 2.900 2.518  3.282 1.000 1.00000 2.900 1.000     21.124  23.000
  834 2.880 2.500  3.260 1.000 1.00000 2.880 1.000     14.860  23.000
  835 2.900 2.518  3.282 1.000 1.00000 2.900 1.000     21.362  23.000
  836 2.850 2.473  3.227 1.000 1.00000 2.850 1.000     17.022  23.000
  837 2.850 2.473  3.227 1.000 1.00000 2.850 1.000      3.991  23.000
  838 2.860 2.482  3.238 1.000 1.00000 2.860 1.000     19.804  23.000
  839 2.880 2.500  3.260 1.000 1.00000 2.880 1.000      7.606  23.000
  840 2.850 2.473  3.227 1.000 1.00000 2.850 1.000      5.986  23.000
  841 2.920 2.536  3.304 1.000 1.00000 2.920 1.000     12.358  23.000
  842 2.860 2.482  3.238 1.000 1.00000 2.860 1.000     15.932  23.000
  843 2.920 2.536  3.304 1.000 1.00000 2.920 1.000     20.068  23.000
  844 2.850 2.473  3.227 1.000 1.00000 2.850 1.000     19.242  23.000
  845 2.920 2.536  3.304 1.000 1.00000 2.920 1.000     25.675  23.000
  846 2.860 2.482  3.238 1.000 1.00000 2.860 1.000     14.117  23.000
  847 2.930 2.545  3.315 1.000 1.00000 2.930 1.000     35.309  23.000
  848 2.900 2.518  3.282 1.000 1.00000 2.900 1.000     31.630  23.000
  849 2.860 2.482  3.238 1.000 1.00000 2.860 1.000      4.949  23.000
  850 2.860 2.482  3.238 1.000 1.00000 2.860 1.000     15.955  23.000
  851 2.900 2.518  3.282 1.000 1.00000 2.900 1.000     14.757  23.000
  852 2.920 2.536  3.304 1.000 1.00000 2.920 1.000     19.176  23.000
  853 2.910 2.527  3.293 1.000 1.00000 2.910 1.000     14.166  23.000
  854 2.830 2.455  3.205 1.000 1.00000 2.830 1.000      1.612  23.000
  855 2.860 2.482  3.238 1.000 1.00000 2.860 1.000     10.354  23.000
  856 2.860 2.482  3.238 1.000 1.00000 2.860 1.000     15.082  23.000
  857 2.900 2.518  3.282 1.000 1.00000 2.900 1.000     26.734  23.000
  858 2.910 2.527  3.293 1.000 1.00000 2.910 1.000     24.749  23.000
  859 2.850 2.473  3.227 1.000 1.00000 2.850 1.000     12.360  23.000
  860 2.950 2.563  3.337 1.000 1.00000 2.950 1.000     27.313  23.000
  861 2.870 2.491  3.249 1.000 1.00000 2.870 1.000     16.011  23.000
  862 2.880 2.500  3.260 1.000 1.00000 2.880 1.000     18.954  23.000
  863 2.870 2.491  3.249 1.000 1.00000 2.870 1.000      6.306  23.000
  864 2.890 2.509  3.271 1.000 1.00000 2.890 1.000     25.821  23.000
  865 2.910 2.527  3.293 1.000 1.00000 2.910 1.000     34.105  23.000
  866 2.920 2.536  3.304 1.000 1.00000 2.920 1.000     22.650  23.000
  867 2.940 2.554  3.326 1.000 1.00000 2.940 1.000     23.135  23.000
  868 2.870 2.491  3.249 1.000 1.00000 2.870 1.000     34.509  23.000
  869 2.870 2.491  3.249 1.000 1.00000 2.870 1.000     19.519  23.000
  870 2.900 2.518  3.282 1.000 1.00000 2.900 1.000     19.731  23.000
  871 2.910 2.527  3.293 1.000 1.00000 2.910 1.000     22.829  23.000
  872 2.860 2.482  3.238 1.000 1.00000 2.860 1.000     19.159  23.000
  873 2.870 2.491  3.249 1.000 1.00000 2.870 1.000     34.957  23.000
  874 2.890 2.509  3.271 1.000 1.00000 2.890 1.000     10.613  23.000
  875 2.880 2.500  3.260 1.000 1.00000 2.880 1.000     14.548  23.000
  876 2.880 2.500  3.260 1.000 1.00000 2.880 1.000     15.898  23.000
  877 2.910 2.527  3.293 1.000 1.00000 2.910 1.000     22.786  23.000
  878 2.850 2.473  3.227 1.000 1.00000 2.850 1.000      6.244  23.000
  879 2.870 2.491  3.249 1.000 1.00000 2.870 1.000     13.064  23.000
  880 2.950 2.563  3.337 1.000 1.00000 2.950 1.000     38.046  23.000
  881 2.860 2.482  3.238 1.000 1.00000 2.860 1.000     13.836  23.000
  882 2.890 2.509  3.271 1.000 1.00000 2.890 1.000     11.536  23.000
  883 2.880 2.500  3.260 1.000 1.00000 2.880 1.000      5.237  23.000
  884 2.880 2.500  3.260 1.000 1.00000 2.880 1.000     13.394  23.000
  885 2.880 2.500  3.260 1.000 1.00000 2.880 1.000     40.254  23.000
  886 2.890 2.509  3.271 1.000 1.00000 2.890 1.000     10.060  23.000
  887 2.860 2.482  3.238 1.000 1.00000 2.860 1.000      7.385  23.000
  888 2.880 2.500  3.260 1.000 1.00000 2.880 1.000     18.351  23.000
  889 2.860 2.482  3.238 1.000 1.00000 2.860 1.000     17.661  23.000
  890 2.860 2.482  3.238 1.000 1.00000 2.860 1.000      8.305  23.000
  891 2.860 2.482  3.238 1.000 1.00000 2.860 1.000      4.131  23.000
  892 2.900 2.518  3.282 1.000 1.00000 2.900 1.000     13.220  23.000
  893 2.880 2.500  3.260 1.000 1.00000 2.880 1.000     16.902  23.000
  894 2.860 2.482  3.238 1.000 1.00000 2.860 1.000     11.853  23.000
  895 2.860 2.482  3.238 1.000 1.00000 2.860 1.000     22.116  23.000
  896 2.850 2.473  3.227 1.000 1.00000 2.850 1.000     10.433  23.000
  897 2.850 2.473  3.227 1.000 1.00000 2.850 1.000     10.711  23.000
  898 2.860 2.482  3.238 1.000 1.00000 2.860 1.000     18.331  23.000
  899 2.880 2.500  3.260 1.000 1.00000 2.880 1.000     14.545  23.000
  900 2.860 2.482  3.238 1.000 1.00000 2.860 1.000     13.604  23.000
  901 2.910 2.527  3.293 1.000 1.00000 2.910 1.000     11.732  23.000
  902 2.860 2.482  3.238 1.000 1.00000 2.860 1.000     14.335  23.000
  903 2.860 2.482  3.238 1.000 1.00000 2.860 1.000     38.015  23.000
  904 2.900 2.518  3.282 1.000 1.00000 2.900 1.000     22.751  23.000
  905 2.910 2.527  3.293 1.000 1.00000 2.910 1.000     25.695  23.000
  906 2.950 2.563  3.337 1.000 1.00000 2.950 1.000     47.978  23.000
  907 2.910 2.527  3.293 1.000 1.00000 2.910 1.000     14.363  23.000
  908 2.900 2.518  3.282 1.000 1.00000 2.900 1.000     25.774  23.000
  909 2.850 2.473  3.227 1.000 1.00000 2.850 1.000     13.591  23.000
  910 2.860 2.482  3.238 1.000 1.00000 2.860 1.000      4.450  23.000
  911 2.850 2.473  3.227 1.000 1.00000 2.850 1.000     22.839  23.000
  912 2.860 2.482  3.238 1.000 1.00000 2.860 1.000      4.305  23.000
  913 2.920 2.536  3.304 1.000 1.00000 2.920 1.000     14.879  23.000
  914 2.850 2.473  3.227 1.000 1.00000 2.850 1.000      6.194  23.000
  915 2.870 2.491  3.249 1.000 1.00000 2.870 1.000     23.119  23.000
  916 2.890 2.509  3.271 1.000 1.00000 2.890 1.000     19.584  23.000
  917 2.850 2.473  3.227 1.000 1.00000 2.850 1.000     11.620  23.000
  918 2.890 2.509  3.271 1.000 1.00000 2.890 1.000     15.161  23.000
  919 2.900 2.518  3.282 1.000 1.00000 2.900 1.000     11.628  23.000
  920 2.910 2.527  3.293 1.000 1.00000 2.910 1.000     37.127  23.000
  921 2.850 2.473  3.227 1.000 1.00000 2.850 1.000      9.123  23.000
  922 2.930 2.545  3.315 1.000 1.00000 2.930 1.000     13.611  23.000
  923 2.850 2.473  3.227 1.000 1.00000 2.850 1.000      4.731  23.000
  924 2.900 2.518  3.282 1.000 1.00000 2.900 1.000     50.826  23.000
  925 2.950 2.563  3.337 1.000 1.00000 2.950 1.000     52.994  23.000
  926 2.900 2.518  3.282 1.000 1.00000 2.900 1.000     33.781  23.000
  927 2.860 2.482  3.238 1.000 1.00000 2.860 1.000     15.394  23.000
  928 2.850 2.473  3.227 1.000 1.00000 2.850 1.000      3.602  23.000
  929 2.900 2.518  3.282 1.000 1.00000 2.900 1.000     32.371  23.000
  930 2.900 2.518  3.282 1.000 1.00000 2.900 1.000     25.281  23.000
  931 2.860 2.482  3.238 1.000 1.00000 2.860 1.000     15.413  23.000
  932 2.880 2.500  3.260 1.000 1.00000 2.880 1.000      5.055  23.000
  933 2.850 2.473  3.227 1.000 1.00000 2.850 1.000      9.364  23.000
  934 2.900 2.518  3.282 1.000 1.00000 2.900 1.000     13.213  23.000
  935 2.910 2.527  3.293 1.000 1.00000 2.910 1.000     13.883  23.000
  936 2.940 2.554  3.326 1.000 1.00000 2.940 1.000     42.361  23.000
  937 2.900 2.518  3.282 1.000 1.00000 2.900 1.000     33.636  23.000
  938 2.900 2.518  3.282 1.000 1.00000 2.900 1.000     41.034  23.000
  939 2.860 2.482  3.238 1.000 1.00000 2.860 1.000     21.369  23.000
  940 2.930 2.545  3.315 1.000 1.00000 2.930 1.000     19.792  23.000
  941 2.850 2.473  3.227 1.000 1.00000 2.850 1.000     29.344  23.000
  942 2.850 2.473  3.227 1.000 1.00000 2.850 1.000      5.223  23.000
  943 2.860 2.482  3.238 1.000 1.00000 2.860 1.000     18.706  23.000
  944 2.880 2.500  3.260 1.000 1.00000 2.880 1.000     31.069  23.000
  945 2.940 2.554  3.326 1.000 1.00000 2.940 1.000     35.416  23.000
  946 2.860 2.482  3.238 1.000 1.00000 2.860 1.000     14.879  23.000
  947 2.860 2.482  3.238 1.000 1.00000 2.860 1.000      8.870  23.000
  948 2.940 2.554  3.326 1.000 1.00000 2.940 1.000     16.466  23.000
  949 2.870 2.491  3.249 1.000 1.00000 2.870 1.000     12.163  23.000
  950 2.890 2.509  3.271 1.000 1.00000 2.890 1.000     18.617  23.000
  951 2.850 2.473  3.227 1.000 1.00000 2.850 1.000     17.308  23.000
  952 2.880 2.500  3.260 1.000 1.00000 2.880 1.000      7.260  23.000
  953 2.870 2.491  3.249 1.000 1.00000 2.870 1.000      6.176  23.000
  954 2.860 2.482  3.238 1.000 1.00000 2.860 1.000     14.689  23.000
  955 2.920 2.536  3.304 1.000 1.00000 2.920 1.000     37.934  23.000
  956 2.910 2.527  3.293 1.000 1.00000 2.910 1.000     34.223  23.000
  957 2.930 2.545  3.315 1.000 1.00000 2.930 1.000     35.462  23.000
  958 2.860 2.482  3.238 1.000 1.00000 2.860 1.000      8.489  23.000
  959 2.850 2.473  3.227 1.000 1.00000 2.850 1.000     11.388  23.000
  960 2.920 2.536  3.304 1.000 1.00000 2.920 1.000     38.028  23.000
  961 2.950 2.563  3.337 1.000 1.00000 2.950 1.000     16.432  23.000
  962 2.860 2.482  3.238 1.000 1.00000 2.860 1.000     13.567  23.000
  963 2.850 2.473  3.227 1.000 1.00000 2.850 1.000     10.879  23.000
  964 2.850 2.473  3.227 1.000 1.00000 2.850 1.000      5.461  23.000
  965 2.900 2.518  3.282 1.000 1.00000 2.900 1.000     18.634  23.000
  966 2.940 2.554  3.326 1.000 1.00000 2.940 1.000     40.315  23.000
  967 2.860 2.482  3.238 1.000 1.00000 2.860 1.000     16.204  23.000
  968 2.880 2.500  3.260 1.000 1.00000 2.880 1.000     11.950  23.000
  969 2.910 2.527  3.293 1.000 1.00000 2.910 1.000     20.237  23.000
  970 2.850 2.473  3.227 1.000 1.00000 2.850 1.000     12.478  23.000
  971 2.860 2.482  3.238 1.000 1.00000 2.860 1.000     21.701  23.000
  972 2.920 2.536  3.304 1.000 1.00000 2.920 1.000     16.279  23.000
  973 2.870 2.491  3.249 1.000 1.00000 2.870 1.000     12.737  23.000
  974 2.880 2.500  3.260 1.000 1.00000 2.880 1.000     13.393  23.000
  975 2.930 2.545  3.315 1.000 1.00000 2.930 1.000     34.282  23.000
  976 2.960 2.572  3.348 1.000 1.00000 2.960 1.000     61.336  23.000
  977 2.860 2.482  3.238 1.000 1.00000 2.860 1.000      7.773  23.000
  978 2.950 2.563  3.337 1.000 1.00000 2.950 1.000     28.338  23.000
  979 2.890 2.509  3.271 1.000 1.00000 2.890 1.000     11.067  23.000
  980 2.880 2.500  3.260 1.000 1.00000 2.880 1.000      6.308  23.000
  981 2.850 2.473  3.227 1.000 1.00000 2.850 1.000     16.317  23.000
  982 2.860 2.482  3.238 1.000 1.00000 2.860 1.000     27.797  23.000
  983 2.850 2.473  3.227 1.000 1.00000 2.850 1.000     26.258  23.000
  984 2.860 2.482  3.238 1.000 1.00000 2.860 1.000      6.838  23.000
  985 2.860 2.482  3.238 1.000 1.00000 2.860 1.000     29.625  23.000
  986 2.920 2.536  3.304 1.000 1.00000 2.920 1.000     12.093  23.000
  987 2.850 2.473  3.227 1.000 1.00000 2.850 1.000      4.692  23.000
  988 2.870 2.491  3.249 1.000 1.00000 2.870 1.000     33.176  23.000
  989 2.910 2.527  3.293 1.000 1.00000 2.910 1.000     23.103  23.000
  990 2.860 2.482  3.238 1.000 1.00000 2.860 1.000     13.111  23.000
  991 2.880 2.500  3.260 1.000 1.00000 2.880 1.000     38.043  23.000
  992 2.920 2.536  3.304 1.000 1.00000 2.920 1.000     41.695  23.000
  993 2.850 2.473  3.227 1.000 1.00000 2.850 1.000     14.875  23.000
  994 2.840 2.464  3.216 1.000 1.00000 2.840 1.000      4.826  23.000
  995 2.890 2.509  3.271 1.000 1.00000 2.890 1.000      6.878  23.000
  996 2.860 2.482  3.238 1.000 1.00000 2.860 1.000      9.068  23.000
  997 2.890 2.509  3.271 1.000 1.00000 2.890 1.000     11.669  23.000
  998 2.920 2.536  3.304 1.000 1.00000 2.920 1.000     37.273  23.000
  999 2.930 2.545  3.315 1.000 1.00000 2.930 1.000     35.513  23.000
 1000 2.900 2.518  3.282 1.000 1.00000 2.900 1.000     10.838  23.000
 1001 2.900 2.518  3.282 1.000 1.00000 2.900 1.000     32.883  23.000
 1002 2.870 2.491  3.249 1.000 1.00000 2.870 1.000      6.869  23.000
 1003 2.910 2.527  3.293 1.000 1.00000 2.910 1.000     15.366  23.000
 1004 2.920 2.536  3.304 1.000 1.00000 2.920 1.000     19.002  23.000
 1005 2.850 2.473  3.227 1.000 1.00000 2.850 1.000     15.369  23.000
 1006 2.880 2.500  3.260 1.000 1.00000 2.880 1.000     25.450  23.000
 1007 2.950 2.563  3.337 1.000 1.00000 2.950 1.000     32.520  23.000
 1008 2.910 2.527  3.293 1.000 1.00000 2.910 1.000     24.562  23.000
 1009 2.850 2.473  3.227 1.000 1.00000 2.850 1.000     14.316  23.000
 1010 2.880 2.500  3.260 1.000 1.00000 2.880 1.000     21.350  23.000
 1011 2.860 2.482  3.238 1.000 1.00000 2.860 1.000     14.742  23.000
 1012 2.850 2.473  3.227 1.000 1.00000 2.850 1.000      7.595  23.000
 1013 2.880 2.500  3.260 1.000 1.00000 2.880 1.000      6.416  23.000
 1014 2.900 2.518  3.282 1.000 1.00000 2.900 1.000     25.493  23.000
 1015 2.880 2.500  3.260 1.000 1.00000 2.880 1.000     28.269  23.000
 1016 2.900 2.518  3.282 1.000 1.00000 2.900 1.000     38.346  23.000
 1017 2.930 2.545  3.315 1.000 1.00000 2.930 1.000     20.028  23.000
 1018 2.890 2.509  3.271 1.000 1.00000 2.890 1.000     12.772  23.000
 1019 2.880 2.500  3.260 1.000 1.00000 2.880 1.000     18.979  23.000
 1020 2.890 2.509  3.271 1.000 1.00000 2.890 1.000     17.481  23.000
 1021 2.940 2.554  3.326 1.000 1.00000 2.940 1.000     21.943  23.000
 1022 2.870 2.491  3.249 1.000 1.00000 2.870 1.000     17.591  23.000
 1023 2.850 2.473  3.227 1.000 1.00000 2.850 1.000     10.776  23.000
 1024 2.850 2.473  3.227 1.000 1.00000 2.850 1.000      7.092  23.000
 1025 2.860 2.482  3.238 1.000 1.00000 2.860 1.000     13.090  23.000
 1026 2.860 2.482  3.238 1.000 1.00000 2.860 1.000      8.282  23.000
 1027 2.900 2.518  3.282 1.000 1.00000 2.900 1.000     23.055  23.000
 1028 2.940 2.554  3.326 1.000 1.00000 2.940 1.000     25.064  23.000
 1029 2.830 2.455  3.205 1.000 1.00000 2.830 1.000      1.940  23.000
 1030 2.950 2.563  3.337 1.000 1.00000 2.950 1.000     63.604  23.000
 1031 2.860 2.482  3.238 1.000 1.00000 2.860 1.000     25.907  23.000
 1032 2.890 2.509  3.271 1.000 1.00000 2.890 1.000     10.255  23.000
 1033 2.900 2.518  3.282 1.000 1.00000 2.900 1.000      9.864  23.000
 1034 2.880 2.500  3.260 1.000 1.00000 2.880 1.000     16.398  23.000
 1035 2.950 2.563  3.337 1.000 1.00000 2.950 1.000     22.860  23.000
 1036 2.860 2.482  3.238 1.000 1.00000 2.860 1.000     25.085  23.000
 1037 2.860 2.482  3.238 1.000 1.00000 2.860 1.000     23.121  23.000
 1038 2.840 2.464  3.216 1.000 1.00000 2.840 1.000      3.530  23.000
 1039 2.900 2.518  3.282 1.000 1.00000 2.900 1.000     20.319  23.000
 1040 2.900 2.518  3.282 1.000 1.00000 2.900 1.000     10.011  23.000
 1041 2.880 2.500  3.260 1.000 1.00000 2.880 1.000      9.199  23.000
 1042 2.900 2.518  3.282 1.000 1.00000 2.900 1.000     30.554  23.000
 1043 2.860 2.482  3.238 1.000 1.00000 2.860 1.000     29.713  23.000
 1044 2.880 2.500  3.260 1.000 1.00000 2.880 1.000     11.423  23.000
 1045 2.860 2.482  3.238 1.000 1.00000 2.860 1.000      5.025  23.000
 1046 2.930 2.545  3.315 1.000 1.00000 2.930 1.000     21.877  23.000
 1047 2.850 2.473  3.227 1.000 1.00000 2.850 1.000     12.560  23.000
 1048 2.880 2.500  3.260 1.000 1.00000 2.880 1.000      5.416  23.000
 1049 2.860 2.482  3.238 1.000 1.00000 2.860 1.000     41.359  23.000
 1050 2.850 2.473  3.227 1.000 1.00000 2.850 1.000     19.642  23.000
 1051 2.890 2.509  3.271 1.000 1.00000 2.890 1.000     14.230  23.000
 1052 2.890 2.509  3.271 1.000 1.00000 2.890 1.000     20.954  23.000
 1053 2.890 2.509  3.271 1.000 1.00000 2.890 1.000     24.059  23.000
 1054 2.860 2.482  3.238 1.000 1.00000 2.860 1.000      9.348  23.000
 1055 2.890 2.509  3.271 1.000 1.00000 2.890 1.000      8.972  23.000
 1056 2.920 2.536  3.304 1.000 1.00000 2.920 1.000     24.434  23.000
 1057 2.840 2.464  3.216 1.000 1.00000 2.840 1.000      2.259  23.000
 1058 2.920 2.536  3.304 1.000 1.00000 2.920 1.000     24.281  23.000
 1059 2.870 2.491  3.249 1.000 1.00000 2.870 1.000     17.531  23.000
 1060 2.850 2.473  3.227 1.000 1.00000 2.850 1.000      9.114  23.000
 1061 2.930 2.545  3.315 1.000 1.00000 2.930 1.000     40.271  23.000
 1062 2.900 2.518  3.282 1.000 1.00000 2.900 1.000     15.879  23.000
 1063 2.930 2.545  3.315 1.000 1.00000 2.930 1.000     27.419  23.000
 1064 2.890 2.509  3.271 1.000 1.00000 2.890 1.000     17.699  23.000
 1065 2.890 2.509  3.271 1.000 1.00000 2.890 1.000     13.325  23.000
 1066 2.850 2.473  3.227 1.000 1.00000 2.850 1.000      3.850  23.000
 1067 2.960 2.572  3.348 1.000 1.00000 2.960 1.000     65.060  23.000
 1068 2.850 2.473  3.227 1.000 1.00000 2.850 1.000     24.929  23.000
 1069 2.910 2.527  3.293 1.000 1.00000 2.910 1.000      9.797  23.000
 1070 2.870 2.491  3.249 1.000 1.00000 2.870 1.000      9.313  23.000
 1071 2.860 2.482  3.238 1.000 1.00000 2.860 1.000      8.096  23.000
 1072 2.850 2.473  3.227 1.000 1.00000 2.850 1.000     20.381  23.000
 1073 2.940 2.554  3.326 1.000 1.00000 2.940 1.000     51.080  23.000
 1074 2.930 2.545  3.315 1.000 1.00000 2.930 1.000     34.412  23.000
 1075 2.880 2.500  3.260 1.000 1.00000 2.880 1.000     11.383  23.000
 1076 2.860 2.482  3.238 1.000 1.00000 2.860 1.000      7.225  23.000
 1077 2.910 2.527  3.293 1.000 1.00000 2.910 1.000     46.057  23.000
 1078 2.890 2.509  3.271 1.000 1.00000 2.890 1.000     20.635  23.000
 1079 2.860 2.482  3.238 1.000 1.00000 2.860 1.000     19.225  23.000
 1080 2.890 2.509  3.271 1.000 1.00000 2.890 1.000      9.047  23.000
 1081 2.910 2.527  3.293 1.000 1.00000 2.910 1.000     14.238  23.000
 1082 2.950 2.563  3.337 1.000 1.00000 2.950 1.000     21.330  23.000
 1083 2.850 2.473  3.227 1.000 1.00000 2.850 1.000      7.081  23.000
 1084 2.880 2.500  3.260 1.000 1.00000 2.880 1.000     28.668  23.000
 1085 2.850 2.473  3.227 1.000 1.00000 2.850 1.000      5.736  23.000
 1086 2.860 2.482  3.238 1.000 1.00000 2.860 1.000     19.746  23.000
 1087 2.860 2.482  3.238 1.000 1.00000 2.860 1.000     10.870  23.000
 1088 2.870 2.491  3.249 1.000 1.00000 2.870 1.000     20.457  23.000
 1089 2.880 2.500  3.260 1.000 1.00000 2.880 1.000     11.556  23.000
 1090 2.920 2.536  3.304 1.000 1.00000 2.920 1.000     12.532  23.000
 1091 2.880 2.500  3.260 1.000 1.00000 2.880 1.000      9.932  23.000
 1092 2.850 2.473  3.227 1.000 1.00000 2.850 1.000      9.595  23.000
 1093 2.860 2.482  3.238 1.000 1.00000 2.860 1.000      5.971  23.000
 1094 2.920 2.536  3.304 1.000 1.00000 2.920 1.000     33.492  23.000
 1095 2.860 2.482  3.238 1.000 1.00000 2.860 1.000     20.219  23.000
 1096 2.920 2.536  3.304 1.000 1.00000 2.920 1.000     36.833  23.000
 1097 2.900 2.518  3.282 1.000 1.00000 2.900 1.000     33.120  23.000
 1098 2.880 2.500  3.260 1.000 1.00000 2.880 1.000     26.221  23.000
 1099 2.940 2.554  3.326 1.000 1.00000 2.940 1.000     39.610  23.000
 1100 2.900 2.518  3.282 1.000 1.00000 2.900 1.000     28.061  23.000
 1101 2.860 2.482  3.238 1.000 1.00000 2.860 1.000     13.289  23.000
 1102 2.880 2.500  3.260 1.000 1.00000 2.880 1.000     12.916  23.000
 1103 2.920 2.536  3.304 1.000 1.00000 2.920 1.000     46.292  23.000
 1104 2.900 2.518  3.282 1.000 1.00000 2.900 1.000     16.779  23.000
 1105 2.950 2.563  3.337 1.000 1.00000 2.950 1.000     33.244  23.000
 1106 2.870 2.491  3.249 1.000 1.00000 2.870 1.000     11.206  23.000
 1107 2.870 2.491  3.249 1.000 1.00000 2.870 1.000     25.801  23.000
 1108 2.910 2.527  3.293 1.000 1.00000 2.910 1.000     43.825  23.000
 1109 2.880 2.500  3.260 1.000 1.00000 2.880 1.000     29.058  23.000
 1110 2.860 2.482  3.238 1.000 1.00000 2.860 1.000     17.442  23.000
 1111 2.940 2.554  3.326 1.000 1.00000 2.940 1.000     28.605  23.000
 1112 2.860 2.482  3.238 1.000 1.00000 2.860 1.000     13.557  23.000
 1113 2.860 2.482  3.238 1.000 1.00000 2.860 1.000     24.234  23.000
 1114 2.880 2.500  3.260 1.000 1.00000 2.880 1.000      5.426  23.000
 1115 2.940 2.554  3.326 1.000 1.00000 2.940 1.000     29.612  23.000
 1116 2.890 2.509  3.271 1.000 1.00000 2.890 1.000     31.110  23.000
 1117 2.860 2.482  3.238 1.000 1.00000 2.860 1.000     13.994  23.000
 1118 2.880 2.500  3.260 1.000 1.00000 2.880 1.000      7.455  23.000
 1119 2.880 2.500  3.260 1.000 1.00000 2.880 1.000     28.131  23.000
 1120 2.900 2.518  3.282 1.000 1.00000 2.900 1.000     21.301  23.000
 1121 2.860 2.482  3.238 1.000 1.00000 2.860 1.000     12.503  23.000
 1122 2.890 2.509  3.271 1.000 1.00000 2.890 1.000      6.188  23.000
 1123 2.890 2.509  3.271 1.000 1.00000 2.890 1.000     41.283  23.000
 1124 2.880 2.500  3.260 1.000 1.00000 2.880 1.000     34.371  23.000
 1125 2.950 2.563  3.337 1.000 1.00000 2.950 1.000     37.169  23.000
 1126 2.900 2.518  3.282 1.000 1.00000 2.900 1.000     37.622  23.000
 1127 2.920 2.536  3.304 1.000 1.00000 2.920 1.000     21.478  23.000
 1128 2.860 2.482  3.238 1.000 1.00000 2.860 1.000     17.751  23.000
 1129 2.910 2.527  3.293 1.000 1.00000 2.910 1.000     20.312  23.000
 1130 2.930 2.545  3.315 1.000 1.00000 2.930 1.000     23.058  23.000
 1131 2.910 2.527  3.293 1.000 1.00000 2.910 1.000     12.986  23.000
 1132 2.900 2.518  3.282 1.000 1.00000 2.900 1.000     41.708  23.000
 1133 2.920 2.536  3.304 1.000 1.00000 2.920 1.000     23.408  23.000
 1134 2.890 2.509  3.271 1.000 1.00000 2.890 1.000     30.709  23.000
 1135 2.860 2.482  3.238 1.000 1.00000 2.860 1.000      5.286  23.000
 1136 2.900 2.518  3.282 1.000 1.00000 2.900 1.000      7.418  23.000
 1137 2.890 2.509  3.271 1.000 1.00000 2.890 1.000     14.270  23.000
 1138 2.890 2.509  3.271 1.000 1.00000 2.890 1.000     31.793  23.000
 1139 2.900 2.518  3.282 1.000 1.00000 2.900 1.000     11.770  23.000
 1140 2.870 2.491  3.249 1.000 1.00000 2.870 1.000      4.396  23.000
 1141 2.960 2.572  3.348 1.000 1.00000 2.960 1.000     48.897  23.000
 1142 2.870 2.491  3.249 1.000 1.00000 2.870 1.000     25.430  23.000
 1143 2.860 2.482  3.238 1.000 1.00000 2.860 1.000     11.841  23.000
 1144 2.890 2.509  3.271 1.000 1.00000 2.890 1.000     41.347  23.000
 1145 2.920 2.536  3.304 1.000 1.00000 2.920 1.000     18.496  23.000
 1146 2.870 2.491  3.249 1.000 1.00000 2.870 1.000      4.997  23.000
 1147 2.870 2.491  3.249 1.000 1.00000 2.870 1.000     13.149  23.000
 1148 2.860 2.482  3.238 1.000 1.00000 2.860 1.000      8.757  23.000
 1149 2.880 2.500  3.260 1.000 1.00000 2.880 1.000     13.354  23.000
 1150 2.870 2.491  3.249 1.000 1.00000 2.870 1.000     20.172  23.000
 1151 2.840 2.464  3.216 1.000 1.00000 2.840 1.000      6.194  23.000
 1152 2.880 2.500  3.260 1.000 1.00000 2.880 1.000     10.917  23.000
 1153 2.860 2.482  3.238 1.000 1.00000 2.860 1.000     18.748  23.000
 1154 2.870 2.491  3.249 1.000 1.00000 2.870 1.000     20.132  23.000
 1155 2.900 2.518  3.282 1.000 1.00000 2.900 1.000      7.484  23.000
 1156 2.860 2.482  3.238 1.000 1.00000 2.860 1.000     13.645  23.000
 1157 2.880 2.500  3.260 1.000 1.00000 2.880 1.000     12.176  23.000
 1158 2.910 2.527  3.293 1.000 1.00000 2.910 1.000     25.061  23.000
 1159 2.850 2.473  3.227 1.000 1.00000 2.850 1.000     10.388  23.000
 1160 2.930 2.545  3.315 1.000 1.00000 2.930 1.000     19.220  23.000
 1161 2.950 2.563  3.337 1.000 1.00000 2.950 1.000     61.132  23.000
 1162 2.890 2.509  3.271 1.000 1.00000 2.890 1.000     46.853  23.000
 1163 2.900 2.518  3.282 1.000 1.00000 2.900 1.000     21.977  23.000
 1164 2.880 2.500  3.260 1.000 1.00000 2.880 1.000     13.014  23.000
 1165 2.850 2.473  3.227 1.000 1.00000 2.850 1.000      7.305  23.000
 1166 2.890 2.509  3.271 1.000 1.00000 2.890 1.000      7.590  23.000
 1167 2.890 2.509  3.271 1.000 1.00000 2.890 1.000     32.273  23.000
 1168 2.890 2.509  3.271 1.000 1.00000 2.890 1.000     12.490  23.000
 1169 2.900 2.518  3.282 1.000 1.00000 2.900 1.000     14.259  23.000
 1170 2.950 2.563  3.337 1.000 1.00000 2.950 1.000     44.954  23.000
 1171 2.910 2.527  3.293 1.000 1.00000 2.910 1.000     34.651  23.000
 1172 2.870 2.491  3.249 1.000 1.00000 2.870 1.000     19.606  23.000
 1173 2.850 2.473  3.227 1.000 1.00000 2.850 1.000     13.544  23.000
 1174 2.840 2.464  3.216 1.000 1.00000 2.840 1.000      6.181  23.000
 1175 2.870 2.491  3.249 1.000 1.00000 2.870 1.000      8.510  23.000
 1176 2.960 2.572  3.348 1.000 1.00000 2.960 1.000     76.842  23.000
 1177 2.950 2.563  3.337 1.000 1.00000 2.950 1.000     41.662  23.000
 1178 2.860 2.482  3.238 1.000 1.00000 2.860 1.000     24.917  23.000
 1179 2.850 2.473  3.227 1.000 1.00000 2.850 1.000     14.127  23.000
 1180 2.950 2.563  3.337 1.000 1.00000 2.950 1.000     94.959  23.000
 1181 2.860 2.482  3.238 1.000 1.00000 2.860 1.000      4.486  23.000
 1182 2.900 2.518  3.282 1.000 1.00000 2.900 1.000     15.918  23.000
 1183 2.890 2.509  3.271 1.000 1.00000 2.890 1.000     16.865  23.000
 1184 2.900 2.518  3.282 1.000 1.00000 2.900 1.000      9.700  23.000
 1185 2.920 2.536  3.304 1.000 1.00000 2.920 1.000     25.567  23.000
 1186 2.850 2.473  3.227 1.000 1.00000 2.850 1.000     19.942  23.000
 1187 2.850 2.473  3.227 1.000 1.00000 2.850 1.000     14.494  23.000
 1188 2.900 2.518  3.282 1.000 1.00000 2.900 1.000     13.671  23.000
 1189 2.950 2.563  3.337 1.000 1.00000 2.950 1.000     58.579  23.000
 1190 2.860 2.482  3.238 1.000 1.00000 2.860 1.000      9.534  23.000
 1191 2.860 2.482  3.238 1.000 1.00000 2.860 1.000     24.911  23.000
 1192 2.920 2.536  3.304 1.000 1.00000 2.920 1.000     14.263  23.000
 1193 2.850 2.473  3.227 1.000 1.00000 2.850 1.000      7.167  23.000
 1194 2.880 2.500  3.260 1.000 1.00000 2.880 1.000     18.629  23.000
 1195 2.890 2.509  3.271 1.000 1.00000 2.890 1.000     23.575  23.000
 1196 2.860 2.482  3.238 1.000 1.00000 2.860 1.000     14.600  23.000
 1197 2.850 2.473  3.227 1.000 1.00000 2.850 1.000     10.455  23.000
 1198 2.850 2.473  3.227 1.000 1.00000 2.850 1.000      8.729  23.000
 1199 2.850 2.473  3.227 1.000 1.00000 2.850 1.000     21.772  23.000
 1200 2.920 2.536  3.304 1.000 1.00000 2.920 1.000     11.570  23.000
 1201 2.910 2.527  3.293 1.000 1.00000 2.910 1.000     28.039  23.000
 1202 2.910 2.527  3.293 1.000 1.00000 2.910 1.000     14.148  23.000
 1203 2.880 2.500  3.260 1.000 1.00000 2.880 1.000     12.348  23.000
 1204 2.950 2.563  3.337 1.000 1.00000 2.950 1.000     85.301  23.000
 1205 2.910 2.527  3.293 1.000 1.00000 2.910 1.000     15.314  23.000
 1206 2.880 2.500  3.260 1.000 1.00000 2.880 1.000      9.190  23.000
 1207 2.900 2.518  3.282 1.000 1.00000 2.900 1.000     14.934  23.000
 1208 2.900 2.518  3.282 1.000 1.00000 2.900 1.000     34.912  23.000
 1209 2.890 2.509  3.271 1.000 1.00000 2.890 1.000     25.946  23.000
 1210 2.900 2.518  3.282 1.000 1.00000 2.900 1.000     21.393  23.000
 1211 2.910 2.527  3.293 1.000 1.00000 2.910 1.000     26.707  23.000
 1212 2.920 2.536  3.304 1.000 1.00000 2.920 1.000     22.233  23.000
 1213 2.890 2.509  3.271 1.000 1.00000 2.890 1.000     25.877  23.000
 1214 2.860 2.482  3.238 1.000 1.00000 2.860 1.000      5.755  23.000
 1215 2.870 2.491  3.249 1.000 1.00000 2.870 1.000     20.129  23.000
 1216 2.870 2.491  3.249 1.000 1.00000 2.870 1.000     22.450  23.000
 1217 2.870 2.491  3.249 1.000 1.00000 2.870 1.000     23.398  23.000
 1218 2.870 2.491  3.249 1.000 1.00000 2.870 1.000     16.880  23.000
 1219 2.870 2.491  3.249 1.000 1.00000 2.870 1.000     24.574  23.000
 1220 2.860 2.482  3.238 1.000 1.00000 2.860 1.000      8.501  23.000
 1221 2.860 2.482  3.238 1.000 1.00000 2.860 1.000      7.951  23.000
 1222 2.860 2.482  3.238 1.000 1.00000 2.860 1.000      8.319  23.000
 1223 2.860 2.482  3.238 1.000 1.00000 2.860 1.000      8.849  23.000
 1224 2.850 2.473  3.227 1.000 1.00000 2.850 1.000     21.853  23.000
 1225 2.850 2.473  3.227 1.000 1.00000 2.850 1.000      3.155  23.000
 1226 2.920 2.536  3.304 1.000 1.00000 2.920 1.000     22.784  23.000
 1227 2.850 2.473  3.227 1.000 1.00000 2.850 1.000      3.741  23.000
 1228 2.910 2.527  3.293 1.000 1.00000 2.910 1.000     40.747  23.000
 1229 2.840 2.464  3.216 1.000 1.00000 2.840 1.000      3.017  23.000
 1230 2.900 2.518  3.282 1.000 1.00000 2.900 1.000     36.919  23.000
 1231 2.950 2.563  3.337 1.000 1.00000 2.950 1.000     30.472  23.000
 1232 2.910 2.527  3.293 1.000 1.00000 2.910 1.000     36.305  23.000
 1233 2.880 2.500  3.260 1.000 1.00000 2.880 1.000      9.306  23.000
 1234 2.970 2.581  3.359 1.000 1.00000 2.970 1.000     74.853  23.000
 1235 2.870 2.491  3.249 1.000 1.00000 2.870 1.000     11.408  23.000
 1236 2.870 2.491  3.249 1.000 1.00000 2.870 1.000     28.486  23.000
 1237 2.920 2.536  3.304 1.000 1.00000 2.920 1.000     16.894  23.000
 1238 2.850 2.473  3.227 1.000 1.00000 2.850 1.000      6.834  23.000
 1239 2.870 2.491  3.249 1.000 1.00000 2.870 1.000     17.764  23.000
 1240 2.880 2.500  3.260 1.000 1.00000 2.880 1.000      5.196  23.000
 1241 2.930 2.545  3.315 1.000 1.00000 2.930 1.000     20.099  23.000
 1242 2.930 2.545  3.315 1.000 1.00000 2.930 1.000     21.879  23.000
 1243 2.870 2.491  3.249 1.000 1.00000 2.870 1.000     21.993  23.000
 1244 2.940 2.554  3.326 1.000 1.00000 2.940 1.000     56.440  23.000
 1245 2.950 2.563  3.337 1.000 1.00000 2.950 1.000     41.140  23.000
 1246 2.870 2.491  3.249 1.000 1.00000 2.870 1.000     27.791  23.000
 1247 2.860 2.482  3.238 1.000 1.00000 2.860 1.000     12.037  23.000
 1248 2.920 2.536  3.304 1.000 1.00000 2.920 1.000     22.557  23.000
 1249 2.950 2.563  3.337 1.000 1.00000 2.950 1.000     43.405  23.000
 1250 2.950 2.563  3.337 1.000 1.00000 2.950 1.000     29.646  23.000
 1251 2.910 2.527  3.293 1.000 1.00000 2.910 1.000      9.548  23.000
 1252 2.870 2.491  3.249 1.000 1.00000 2.870 1.000     12.937  23.000
 1253 2.870 2.491  3.249 1.000 1.00000 2.870 1.000      6.696  23.000
 1254 2.870 2.491  3.249 1.000 1.00000 2.870 1.000     18.486  23.000
 1255 2.880 2.500  3.260 1.000 1.00000 2.880 1.000     36.359  23.000
 1256 2.870 2.491  3.249 1.000 1.00000 2.870 1.000     30.575  23.000
 1257 2.880 2.500  3.260 1.000 1.00000 2.880 1.000     37.146  23.000
 1258 2.920 2.536  3.304 1.000 1.00000 2.920 1.000     43.860  23.000
 1259 2.920 2.536  3.304 1.000 1.00000 2.920 1.000     40.633  23.000
 1260 2.880 2.500  3.260 1.000 1.00000 2.880 1.000      7.731  23.000
 1261 2.900 2.518  3.282 1.000 1.00000 2.900 1.000     25.883  23.000
 1262 2.880 2.500  3.260 1.000 1.00000 2.880 1.000     63.812  23.000
 1263 2.920 2.536  3.304 1.000 1.00000 2.920 1.000     34.039  23.000
 1264 2.920 2.536  3.304 1.000 1.00000 2.920 1.000     36.269  23.000
 1265 2.860 2.482  3.238 1.000 1.00000 2.860 1.000      5.827  23.000
 1266 2.850 2.473  3.227 1.000 1.00000 2.850 1.000      7.332  23.000
 1267 2.880 2.500  3.260 1.000 1.00000 2.880 1.000     13.427  23.000
 1268 2.860 2.482  3.238 1.000 1.00000 2.860 1.000     21.187  23.000
 1269 2.900 2.518  3.282 1.000 1.00000 2.900 1.000      8.214  23.000
 1270 2.840 2.464  3.216 1.000 1.00000 2.840 1.000      4.129  23.000
 1271 2.860 2.482  3.238 1.000 1.00000 2.860 1.000      8.746  23.000
 1272 2.930 2.545  3.315 1.000 1.00000 2.930 1.000     38.681  23.000
 1273 2.900 2.518  3.282 1.000 1.00000 2.900 1.000     33.230  23.000
 1274 2.900 2.518  3.282 1.000 1.00000 2.900 1.000     44.379  23.000
 1275 2.920 2.536  3.304 1.000 1.00000 2.920 1.000     19.620  23.000
 1276 2.850 2.473  3.227 1.000 1.00000 2.850 1.000     20.136  23.000
 1277 2.920 2.536  3.304 1.000 1.00000 2.920 1.000     27.968  23.000
 1278 2.870 2.491  3.249 1.000 1.00000 2.870 1.000     21.053  23.000
 1279 2.860 2.482  3.238 1.000 1.00000 2.860 1.000     10.918  23.000
 1280 2.850 2.473  3.227 1.000 1.00000 2.850 1.000     14.282  23.000
 1281 2.890 2.509  3.271 1.000 1.00000 2.890 1.000      8.744  23.000
 1282 2.900 2.518  3.282 1.000 1.00000 2.900 1.000     25.131  23.000
 1283 2.870 2.491  3.249 1.000 1.00000 2.870 1.000     10.827  23.000
 1284 2.860 2.482  3.238 1.000 1.00000 2.860 1.000     11.567  23.000
 1285 2.890 2.509  3.271 1.000 1.00000 2.890 1.000      6.436  23.000
 1286 2.870 2.491  3.249 1.000 1.00000 2.870 1.000      8.906  23.000
 1287 2.900 2.518  3.282 1.000 1.00000 2.900 1.000     16.473  23.000
 1288 2.860 2.482  3.238 1.000 1.00000 2.860 1.000     19.249  23.000
 1289 2.880 2.500  3.260 1.000 1.00000 2.880 1.000     46.730  23.000
 1290 2.960 2.572  3.348 1.000 1.00000 2.960 1.000     49.474  23.000
 1291 2.860 2.482  3.238 1.000 1.00000 2.860 1.000      3.755  23.000
 1292 2.860 2.482  3.238 1.000 1.00000 2.860 1.000      8.225  23.000
 1293 2.850 2.473  3.227 1.000 1.00000 2.850 1.000     10.363  23.000
 1294 2.860 2.482  3.238 1.000 1.00000 2.860 1.000     15.398  23.000
 1295 2.860 2.482  3.238 1.000 1.00000 2.860 1.000     34.996  23.000
 1296 2.930 2.545  3.315 1.000 1.00000 2.930 1.000     14.122  23.000
 1297 2.850 2.473  3.227 1.000 1.00000 2.850 1.000      7.324  23.000
 1298 2.910 2.527  3.293 1.000 1.00000 2.910 1.000     28.895  23.000
 1299 2.880 2.500  3.260 1.000 1.00000 2.880 1.000     10.047  23.000
 1300 2.940 2.554  3.326 1.000 1.00000 2.940 1.000     38.941  23.000
 1301 2.890 2.509  3.271 1.000 1.00000 2.890 1.000     11.511  23.000
 1302 2.920 2.536  3.304 1.000 1.00000 2.920 1.000     11.735  23.000
 1303 2.920 2.536  3.304 1.000 1.00000 2.920 1.000     18.376  23.000
 1304 2.870 2.491  3.249 1.000 1.00000 2.870 1.000     19.019  23.000
 1305 2.860 2.482  3.238 1.000 1.00000 2.860 1.000     14.633  23.000
 1306 2.890 2.509  3.271 1.000 1.00000 2.890 1.000     28.302  23.000
 1307 2.870 2.491  3.249 1.000 1.00000 2.870 1.000     11.148  23.000
 1308 2.880 2.500  3.260 1.000 1.00000 2.880 1.000      6.833  23.000
 1309 2.870 2.491  3.249 1.000 1.00000 2.870 1.000     20.233  23.000
 1310 2.900 2.518  3.282 1.000 1.00000 2.900 1.000     25.352  23.000
 1311 2.930 2.545  3.315 1.000 1.00000 2.930 1.000     28.016  23.000
 1312 2.910 2.527  3.293 1.000 1.00000 2.910 1.000     13.137  23.000
 1313 2.890 2.509  3.271 1.000 1.00000 2.890 1.000     26.245  23.000
 1314 2.850 2.473  3.227 1.000 1.00000 2.850 1.000      7.839  23.000
 1315 2.900 2.518  3.282 1.000 1.00000 2.900 1.000     16.706  23.000
 1316 2.930 2.545  3.315 1.000 1.00000 2.930 1.000     28.044  23.000
 1317 2.850 2.473  3.227 1.000 1.00000 2.850 1.000      5.806  23.000
 1318 2.850 2.473  3.227 1.000 1.00000 2.850 1.000     16.949  23.000
 1319 2.860 2.482  3.238 1.000 1.00000 2.860 1.000     14.975  23.000
 1320 2.910 2.527  3.293 1.000 1.00000 2.910 1.000     22.688  23.000
 1321 2.870 2.491  3.249 1.000 1.00000 2.870 1.000      7.020  23.000
 1322 2.880 2.500  3.260 1.000 1.00000 2.880 1.000     22.651  23.000
 1323 2.880 2.500  3.260 1.000 1.00000 2.880 1.000      8.503  23.000
 1324 2.880 2.500  3.260 1.000 1.00000 2.880 1.000     29.401  23.000
 1325 2.880 2.500  3.260 1.000 1.00000 2.880 1.000     20.982  23.000
 1326 2.900 2.518  3.282 1.000 1.00000 2.900 1.000     17.486  23.000
 1327 2.830 2.455  3.205 1.000 1.00000 2.830 1.000      5.479  23.000
 1328 2.940 2.554  3.326 1.000 1.00000 2.940 1.000     18.979  23.000
 1329 2.890 2.509  3.271 1.000 1.00000 2.890 1.000     38.860  23.000
 1330 2.880 2.500  3.260 1.000 1.00000 2.880 1.000      8.663  23.000
 1331 2.860 2.482  3.238 1.000 1.00000 2.860 1.000      5.713  23.000
 1332 2.990 2.599  3.381 1.000 1.00000 2.990 1.000    112.772  23.000
 1333 2.950 2.563  3.337 1.000 1.00000 2.950 1.000     18.335  23.000
 1334 2.850 2.473  3.227 1.000 1.00000 2.850 1.000      5.170  23.000
 1335 2.850 2.473  3.227 1.000 1.00000 2.850 1.000     16.335  23.000
 1336 2.910 2.527  3.293 1.000 1.00000 2.910 1.000     16.382  23.000
 1337 2.850 2.473  3.227 1.000 1.00000 2.850 1.000      9.591  23.000
 1338 2.850 2.473  3.227 1.000 1.00000 2.850 1.000      8.689  23.000
 1339 2.860 2.482  3.238 1.000 1.00000 2.860 1.000      8.046  23.000
 1340 2.890 2.509  3.271 1.000 1.00000 2.890 1.000     29.751  23.000
 1341 2.860 2.482  3.238 1.000 1.00000 2.860 1.000      6.909  23.000
 1342 2.940 2.554  3.326 1.000 1.00000 2.940 1.000     24.949  23.000
 1343 2.860 2.482  3.238 1.000 1.00000 2.860 1.000     19.107  23.000
 1344 2.850 2.473  3.227 1.000 1.00000 2.850 1.000     13.197  23.000
 1345 2.950 2.563  3.337 1.000 1.00000 2.950 1.000     84.879  23.000
 1346 2.890 2.509  3.271 1.000 1.00000 2.890 1.000     16.481  23.000
 1347 2.880 2.500  3.260 1.000 1.00000 2.880 1.000     13.105  23.000
 1348 2.890 2.509  3.271 1.000 1.00000 2.890 1.000      8.616  23.000
 1349 2.860 2.482  3.238 1.000 1.00000 2.860 1.000     14.757  23.000
 1350 2.850 2.473  3.227 1.000 1.00000 2.850 1.000     22.305  23.000
 1351 2.870 2.491  3.249 1.000 1.00000 2.870 1.000     26.628  23.000
 1352 2.920 2.536  3.304 1.000 1.00000 2.920 1.000     26.953  23.000
 1353 2.950 2.563  3.337 1.000 1.00000 2.950 1.000     20.024  23.000
 1354 2.900 2.518  3.282 1.000 1.00000 2.900 1.000     28.991  23.000
 1355 2.900 2.518  3.282 1.000 1.00000 2.900 1.000     22.346  23.000
 1356 2.920 2.536  3.304 1.000 1.00000 2.920 1.000     28.698  23.000
 1357 2.880 2.500  3.260 1.000 1.00000 2.880 1.000     11.509  23.000
 1358 2.860 2.482  3.238 1.000 1.00000 2.860 1.000     12.836  23.000
 1359 2.940 2.554  3.326 1.000 1.00000 2.940 1.000     33.186  23.000
 1360 2.860 2.482  3.238 1.000 1.00000 2.860 1.000     19.582  23.000
 1361 2.850 2.473  3.227 1.000 1.00000 2.850 1.000     16.986  23.000
 1362 2.860 2.482  3.238 1.000 1.00000 2.860 1.000      3.585  23.000
 1363 2.940 2.554  3.326 1.000 1.00000 2.940 1.000     26.466  23.000
 1364 2.850 2.473  3.227 1.000 1.00000 2.850 1.000     12.065  23.000
 1365 2.930 2.545  3.315 1.000 1.00000 2.930 1.000     43.455  23.000
 1366 2.860 2.482  3.238 1.000 1.00000 2.860 1.000     19.911  23.000
 1367 2.920 2.536  3.304 1.000 1.00000 2.920 1.000     24.636  23.000
 1368 2.870 2.491  3.249 1.000 1.00000 2.870 1.000     27.063  23.000
 1369 2.860 2.482  3.238 1.000 1.00000 2.860 1.000     18.584  23.000
 1370 2.850 2.473  3.227 1.000 1.00000 2.850 1.000      8.461  23.000
 1371 2.900 2.518  3.282 1.000 1.00000 2.900 1.000     27.218  23.000
 1372 2.860 2.482  3.238 1.000 1.00000 2.860 1.000     16.726  23.000
 1373 2.910 2.527  3.293 1.000 1.00000 2.910 1.000      9.824  23.000
 1374 2.890 2.509  3.271 1.000 1.00000 2.890 1.000     27.927  23.000
 1375 2.930 2.545  3.315 1.000 1.00000 2.930 1.000     24.811  23.000
 1376 2.930 2.545  3.315 1.000 1.00000 2.930 1.000     45.984  23.000
 1377 2.900 2.518  3.282 1.000 1.00000 2.900 1.000     14.462  23.000
 1378 2.880 2.500  3.260 1.000 1.00000 2.880 1.000     27.480  23.000
 1379 2.890 2.509  3.271 1.000 1.00000 2.890 1.000     16.058  23.000
 1380 2.830 2.455  3.205 1.000 1.00000 2.830 1.000      7.251  23.000
 1381 2.860 2.482  3.238 1.000 1.00000 2.860 1.000     16.081  23.000
 1382 2.870 2.491  3.249 1.000 1.00000 2.870 1.000     19.182  23.000
 1383 2.850 2.473  3.227 1.000 1.00000 2.850 1.000      5.926  23.000
 1384 2.870 2.491  3.249 1.000 1.00000 2.870 1.000     33.938  23.000
 1385 2.850 2.473  3.227 1.000 1.00000 2.850 1.000      9.726  23.000
 1386 2.920 2.536  3.304 1.000 1.00000 2.920 1.000     29.569  23.000
 1387 2.850 2.473  3.227 1.000 1.00000 2.850 1.000     18.253  23.000
 1388 2.860 2.482  3.238 1.000 1.00000 2.860 1.000     16.068  23.000
 1389 2.920 2.536  3.304 1.000 1.00000 2.920 1.000     36.753  23.000
 1390 2.900 2.518  3.282 1.000 1.00000 2.900 1.000     18.084  23.000
 1391 2.890 2.509  3.271 1.000 1.00000 2.890 1.000     18.101  23.000
 1392 2.910 2.527  3.293 1.000 1.00000 2.910 1.000     34.399  23.000
 1393 2.890 2.509  3.271 1.000 1.00000 2.890 1.000     12.342  23.000
 1394 2.850 2.473  3.227 1.000 1.00000 2.850 1.000      8.246  23.000
 1395 2.880 2.500  3.260 1.000 1.00000 2.880 1.000     28.022  23.000
 1396 2.930 2.545  3.315 1.000 1.00000 2.930 1.000     31.918  23.000
 1397 2.860 2.482  3.238 1.000 1.00000 2.860 1.000     24.513  23.000
 1398 2.820 2.446  3.194 1.000 1.00000 2.820 1.000      1.400  23.000
 1399 2.880 2.500  3.260 1.000 1.00000 2.880 1.000      9.400  23.000
 1400 2.860 2.482  3.238 1.000 1.00000 2.860 1.000     11.034  23.000
 1401 2.950 2.563  3.337 1.000 1.00000 2.950 1.000     19.063  23.000
 1402 2.860 2.482  3.238 1.000 1.00000 2.860 1.000      6.989  23.000
 1403 2.910 2.527  3.293 1.000 1.00000 2.910 1.000     10.642  23.000
 1404 2.860 2.482  3.238 1.000 1.00000 2.860 1.000     10.085  23.000
 1405 2.920 2.536  3.304 1.000 1.00000 2.920 1.000     28.879  23.000
 1406 2.910 2.527  3.293 1.000 1.00000 2.910 1.000     26.184  23.000
 1407 2.900 2.518  3.282 1.000 1.00000 2.900 1.000     37.190  23.000
 1408 2.880 2.500  3.260 1.000 1.00000 2.880 1.000      9.012  23.000
 1409 2.860 2.482  3.238 1.000 1.00000 2.860 1.000     17.630  23.000
 1410 2.900 2.518  3.282 1.000 1.00000 2.900 1.000     29.013  23.000
 1411 2.880 2.500  3.260 1.000 1.00000 2.880 1.000     29.187  23.000
 1412 2.860 2.482  3.238 1.000 1.00000 2.860 1.000      7.972  23.000
 1413 2.910 2.527  3.293 1.000 1.00000 2.910 1.000     25.740  23.000
 1414 2.920 2.536  3.304 1.000 1.00000 2.920 1.000     16.399  23.000
 1415 2.850 2.473  3.227 1.000 1.00000 2.850 1.000     14.529  23.000
 1416 2.950 2.563  3.337 1.000 1.00000 2.950 1.000     39.004  23.000
 1417 2.890 2.509  3.271 1.000 1.00000 2.890 1.000     12.487  23.000
 1418 2.920 2.536  3.304 1.000 1.00000 2.920 1.000     32.544  23.000
 1419 2.890 2.509  3.271 1.000 1.00000 2.890 1.000      8.700  23.000
 1420 2.940 2.554  3.326 1.000 1.00000 2.940 1.000     39.939  23.000
 1421 2.930 2.545  3.315 1.000 1.00000 2.930 1.000     21.365  23.000
 1422 2.910 2.527  3.293 1.000 1.00000 2.910 1.000     36.818  23.000
 1423 2.910 2.527  3.293 1.000 1.00000 2.910 1.000     44.907  23.000
 1424 2.850 2.473  3.227 1.000 1.00000 2.850 1.000      5.461  23.000
 1425 2.920 2.536  3.304 1.000 1.00000 2.920 1.000     51.615  23.000
 1426 2.890 2.509  3.271 1.000 1.00000 2.890 1.000     36.472  23.000
 1427 2.950 2.563  3.337 1.000 1.00000 2.950 1.000     46.928  23.000
 1428 2.860 2.482  3.238 1.000 1.00000 2.860 1.000     14.314  23.000
 1429 2.950 2.563  3.337 1.000 1.00000 2.950 1.000     35.292  23.000
 1430 2.850 2.473  3.227 1.000 1.00000 2.850 1.000      5.949  23.000
 1431 2.950 2.563  3.337 1.000 1.00000 2.950 1.000     73.747  23.000
 1432 2.910 2.527  3.293 1.000 1.00000 2.910 1.000     33.454  23.000
 1433 2.860 2.482  3.238 1.000 1.00000 2.860 1.000     35.138  23.000
 1434 2.850 2.473  3.227 1.000 1.00000 2.850 1.000      6.707  23.000
 1435 2.890 2.509  3.271 1.000 1.00000 2.890 1.000     16.854  23.000
 1436 2.920 2.536  3.304 1.000 1.00000 2.920 1.000     44.880  23.000
 1437 2.900 2.518  3.282 1.000 1.00000 2.900 1.000     14.954  23.000
 1438 2.890 2.509  3.271 1.000 1.00000 2.890 1.000     10.333  23.000
 1439 2.880 2.500  3.260 1.000 1.00000 2.880 1.000     18.476  23.000
 1440 2.950 2.563  3.337 1.000 1.00000 2.950 1.000     31.172  23.000
 1441 2.850 2.473  3.227 1.000 1.00000 2.850 1.000      6.748  23.000
 1442 2.910 2.527  3.293 1.000 1.00000 2.910 1.000     31.440  23.000
 1443 2.860 2.482  3.238 1.000 1.00000 2.860 1.000     14.567  23.000
 1444 2.910 2.527  3.293 1.000 1.00000 2.910 1.000     26.056  23.000
 1445 2.900 2.518  3.282 1.000 1.00000 2.900 1.000     15.245  23.000
 1446 2.860 2.482  3.238 1.000 1.00000 2.860 1.000      7.256  23.000
 1447 2.900 2.518  3.282 1.000 1.00000 2.900 1.000     18.770  23.000
 1448 2.960 2.572  3.348 1.000 1.00000 2.960 1.000     55.704  23.000
 1449 2.870 2.491  3.249 1.000 1.00000 2.870 1.000      9.151  23.000
 1450 2.870 2.491  3.249 1.000 1.00000 2.870 1.000     11.451  23.000
 1451 2.950 2.563  3.337 1.000 1.00000 2.950 1.000     55.525  23.000
 1452 2.950 2.563  3.337 1.000 1.00000 2.950 1.000     46.648  23.000
 1453 2.880 2.500  3.260 1.000 1.00000 2.880 1.000     14.281  23.000
 1454 2.910 2.527  3.293 1.000 1.00000 2.910 1.000     40.391  23.000
 1455 2.940 2.554  3.326 1.000 1.00000 2.940 1.000     23.045  23.000
 1456 2.850 2.473  3.227 1.000 1.00000 2.850 1.000      7.225  23.000
 1457 2.890 2.509  3.271 1.000 1.00000 2.890 1.000     32.365  23.000
 1458 2.920 2.536  3.304 1.000 1.00000 2.920 1.000     27.339  23.000
 1459 2.860 2.482  3.238 1.000 1.00000 2.860 1.000     19.200  23.000
 1460 2.920 2.536  3.304 1.000 1.00000 2.920 1.000     24.116  23.000
 1461 2.880 2.500  3.260 1.000 1.00000 2.880 1.000     26.430  23.000
 1462 2.910 2.527  3.293 1.000 1.00000 2.910 1.000     21.728  23.000
 1463 2.900 2.518  3.282 1.000 1.00000 2.900 1.000     18.713  23.000
 1464 2.880 2.500  3.260 1.000 1.00000 2.880 1.000      6.829  23.000
 1465 2.910 2.527  3.293 1.000 1.00000 2.910 1.000     27.613  23.000
 1466 2.870 2.491  3.249 1.000 1.00000 2.870 1.000     13.356  23.000
 1467 2.910 2.527  3.293 1.000 1.00000 2.910 1.000     31.997  23.000
 1468 2.850 2.473  3.227 1.000 1.00000 2.850 1.000     23.359  23.000
 1469 2.900 2.518  3.282 1.000 1.00000 2.900 1.000      8.744  23.000
 1470 2.880 2.500  3.260 1.000 1.00000 2.880 1.000      5.773  23.000
 1471 2.910 2.527  3.293 1.000 1.00000 2.910 1.000     17.797  23.000
 1472 2.880 2.500  3.260 1.000 1.00000 2.880 1.000     42.395  23.000
 1473 2.860 2.482  3.238 1.000 1.00000 2.860 1.000     19.605  23.000
 1474 2.900 2.518  3.282 1.000 1.00000 2.900 1.000      9.056  23.000
 1475 2.910 2.527  3.293 1.000 1.00000 2.910 1.000     19.352  23.000
 1476 2.910 2.527  3.293 1.000 1.00000 2.910 1.000     13.613  23.000
 1477 2.860 2.482  3.238 1.000 1.00000 2.860 1.000      5.406  23.000
 1478 2.880 2.500  3.260 1.000 1.00000 2.880 1.000     15.130  23.000
 1479 2.880 2.500  3.260 1.000 1.00000 2.880 1.000     11.832  23.000
 1480 2.880 2.500  3.260 1.000 1.00000 2.880 1.000     27.184  23.000
 1481 2.860 2.482  3.238 1.000 1.00000 2.860 1.000     15.119  23.000
 1482 2.860 2.482  3.238 1.000 1.00000 2.860 1.000     12.894  23.000
 1483 2.870 2.491  3.249 1.000 1.00000 2.870 1.000     18.670  23.000
 1484 2.860 2.482  3.238 1.000 1.00000 2.860 1.000     25.678  23.000
 1485 2.880 2.500  3.260 1.000 1.00000 2.880 1.000     24.252  23.000
 1486 2.850 2.473  3.227 1.000 1.00000 2.850 1.000      6.514  23.000
 1487 2.920 2.536  3.304 1.000 1.00000 2.920 1.000     17.865  23.000
 1488 2.910 2.527  3.293 1.000 1.00000 2.910 1.000     36.161  23.000
 1489 2.930 2.545  3.315 1.000 1.00000 2.930 1.000     20.647  23.000
 1490 2.860 2.482  3.238 1.000 1.00000 2.860 1.000     16.432  23.000
 1491 2.930 2.545  3.315 1.000 1.00000 2.930 1.000     14.746  23.000
 1492 2.890 2.509  3.271 1.000 1.00000 2.890 1.000     42.761  23.000
 1493 2.890 2.509  3.271 1.000 1.00000 2.890 1.000     33.529  23.000
 1494 2.940 2.554  3.326 1.000 1.00000 2.940 1.000     20.444  23.000
 1495 2.890 2.509  3.271 1.000 1.00000 2.890 1.000     16.665  23.000
 1496 2.910 2.527  3.293 1.000 1.00000 2.910 1.000     16.879  23.000
 1497 2.920 2.536  3.304 1.000 1.00000 2.920 1.000     25.219  23.000
 1498 2.900 2.518  3.282 1.000 1.00000 2.900 1.000     26.569  23.000
 1499 2.890 2.509  3.271 1.000 1.00000 2.890 1.000     40.160  23.000
 1500 2.950 2.563  3.337 1.000 1.00000 2.950 1.000     84.850  23.000
 1501 2.860 2.482  3.238 1.000 1.00000 2.860 1.000     11.420  23.000
 1502 2.900 2.518  3.282 1.000 1.00000 2.900 1.000     15.268  23.000
 1503 2.910 2.527  3.293 1.000 1.00000 2.910 1.000     19.038  23.000
 1504 2.850 2.473  3.227 1.000 1.00000 2.850 1.000     30.724  23.000
 1505 2.870 2.491  3.249 1.000 1.00000 2.870 1.000     16.930  23.000
 1506 2.850 2.473  3.227 1.000 1.00000 2.850 1.000      6.312  23.000
 1507 2.900 2.518  3.282 1.000 1.00000 2.900 1.000     15.721  23.000
 1508 2.940 2.554  3.326 1.000 1.00000 2.940 1.000     40.404  23.000
 1509 2.860 2.482  3.238 1.000 1.00000 2.860 1.000     25.900  23.000
 1510 2.880 2.500  3.260 1.000 1.00000 2.880 1.000     13.732  23.000
 1511 2.950 2.563  3.337 1.000 1.00000 2.950 1.000     34.421  23.000
 1512 2.920 2.536  3.304 1.000 1.00000 2.920 1.000     29.288  23.000
 1513 2.890 2.509  3.271 1.000 1.00000 2.890 1.000     26.273  23.000
 1514 2.880 2.500  3.260 1.000 1.00000 2.880 1.000     16.387  23.000
 1515 2.830 2.455  3.205 1.000 1.00000 2.830 1.000      1.996  23.000
 1516 2.850 2.473  3.227 1.000 1.00000 2.850 1.000     11.509  23.000
 1517 2.950 2.563  3.337 1.000 1.00000 2.950 1.000     46.367  23.000
 1518 2.870 2.491  3.249 1.000 1.00000 2.870 1.000      9.759  23.000
 1519 2.860 2.482  3.238 1.000 1.00000 2.860 1.000      5.375  23.000
 1520 2.860 2.482  3.238 1.000 1.00000 2.860 1.000     19.069  23.000
 1521 2.920 2.536  3.304 1.000 1.00000 2.920 1.000     28.054  23.000
 1522 2.890 2.509  3.271 1.000 1.00000 2.890 1.000     12.420  23.000
 1523 2.950 2.563  3.337 1.000 1.00000 2.950 1.000     42.876  23.000
 1524 2.860 2.482  3.238 1.000 1.00000 2.860 1.000     19.412  23.000
 1525 2.900 2.518  3.282 1.000 1.00000 2.900 1.000     11.903  23.000
 1526 2.900 2.518  3.282 1.000 1.00000 2.900 1.000     12.215  23.000
 1527 2.870 2.491  3.249 1.000 1.00000 2.870 1.000     25.139  23.000
 1528 2.860 2.482  3.238 1.000 1.00000 2.860 1.000      9.285  23.000
 1529 2.900 2.518  3.282 1.000 1.00000 2.900 1.000     30.012  23.000
 1530 2.860 2.482  3.238 1.000 1.00000 2.860 1.000     32.546  23.000
 1531 2.850 2.473  3.227 1.000 1.00000 2.850 1.000      6.984  23.000
 1532 2.940 2.554  3.326 1.000 1.00000 2.940 1.000     33.241  23.000
 1533 2.890 2.509  3.271 1.000 1.00000 2.890 1.000     12.925  23.000
 1534 2.860 2.482  3.238 1.000 1.00000 2.860 1.000      9.782  23.000
 1535 2.870 2.491  3.249 1.000 1.00000 2.870 1.000      8.769  23.000
 1536 2.870 2.491  3.249 1.000 1.00000 2.870 1.000     10.692  23.000
 1537 2.950 2.563  3.337 1.000 1.00000 2.950 1.000     21.032  23.000
 1538 2.890 2.509  3.271 1.000 1.00000 2.890 1.000     36.014  23.000
 1539 2.870 2.491  3.249 1.000 1.00000 2.870 1.000     34.368  23.000
 1540 2.900 2.518  3.282 1.000 1.00000 2.900 1.000     19.240  23.000
 1541 2.870 2.491  3.249 1.000 1.00000 2.870 1.000     17.811  23.000
 1542 2.910 2.527  3.293 1.000 1.00000 2.910 1.000     13.148  23.000
 1543 2.920 2.536  3.304 1.000 1.00000 2.920 1.000     20.348  23.000
 1544 2.880 2.500  3.260 1.000 1.00000 2.880 1.000     13.967  23.000
 1545 2.910 2.527  3.293 1.000 1.00000 2.910 1.000     14.899  23.000
 1546 2.920 2.536  3.304 1.000 1.00000 2.920 1.000     23.165  23.000
 1547 2.890 2.509  3.271 1.000 1.00000 2.890 1.000     22.752  23.000
 1548 2.920 2.536  3.304 1.000 1.00000 2.920 1.000     22.662  23.000
 1549 2.890 2.509  3.271 1.000 1.00000 2.890 1.000     42.600  23.000
 1550 2.910 2.527  3.293 1.000 1.00000 2.910 1.000     33.284  23.000
 1551 2.860 2.482  3.238 1.000 1.00000 2.860 1.000     19.097  23.000
 1552 2.850 2.473  3.227 1.000 1.00000 2.850 1.000     13.851  23.000
 1553 2.890 2.509  3.271 1.000 1.00000 2.890 1.000      8.645  23.000
 1554 2.910 2.527  3.293 1.000 1.00000 2.910 1.000     23.377  23.000
 1555 2.850 2.473  3.227 1.000 1.00000 2.850 1.000      7.740  23.000
 1556 2.870 2.491  3.249 1.000 1.00000 2.870 1.000     19.958  23.000
 1557 2.890 2.509  3.271 1.000 1.00000 2.890 1.000      7.098  23.000
 1558 2.860 2.482  3.238 1.000 1.00000 2.860 1.000      5.553  23.000
 1559 2.850 2.473  3.227 1.000 1.00000 2.850 1.000      6.909  23.000
 1560 2.860 2.482  3.238 1.000 1.00000 2.860 1.000     26.163  23.000
 1561 2.910 2.527  3.293 1.000 1.00000 2.910 1.000     23.098  23.000
 1562 2.850 2.473  3.227 1.000 1.00000 2.850 1.000      7.640  23.000
 1563 2.890 2.509  3.271 1.000 1.00000 2.890 1.000     15.009  23.000
 1564 2.890 2.509  3.271 1.000 1.00000 2.890 1.000     13.792  23.000
 1565 2.910 2.527  3.293 1.000 1.00000 2.910 1.000     25.459  23.000
 1566 2.860 2.482  3.238 1.000 1.00000 2.860 1.000     17.454  23.000
 1567 2.860 2.482  3.238 1.000 1.00000 2.860 1.000      8.884  23.000
 1568 2.870 2.491  3.249 1.000 1.00000 2.870 1.000     28.262  23.000
 1569 2.860 2.482  3.238 1.000 1.00000 2.860 1.000      4.902  23.000
 1570 2.850 2.473  3.227 1.000 1.00000 2.850 1.000      3.624  23.000
 1571 2.880 2.500  3.260 1.000 1.00000 2.880 1.000     20.747  23.000
 1572 2.850 2.473  3.227 1.000 1.00000 2.850 1.000      6.349  23.000
 1573 2.880 2.500  3.260 1.000 1.00000 2.880 1.000     19.938  23.000
 1574 2.950 2.563  3.337 1.000 1.00000 2.950 1.000     55.634  23.000
 1575 2.860 2.482  3.238 1.000 1.00000 2.860 1.000      4.259  23.000
 1576 2.880 2.500  3.260 1.000 1.00000 2.880 1.000     27.204  23.000
 1577 2.900 2.518  3.282 1.000 1.00000 2.900 1.000     34.898  23.000
 1578 2.850 2.473  3.227 1.000 1.00000 2.850 1.000      5.754  23.000
 1579 2.890 2.509  3.271 1.000 1.00000 2.890 1.000     11.843  23.000
 1580 2.900 2.518  3.282 1.000 1.00000 2.900 1.000     20.454  23.000
 1581 2.900 2.518  3.282 1.000 1.00000 2.900 1.000     41.364  23.000
 1582 2.930 2.545  3.315 1.000 1.00000 2.930 1.000     20.021  23.000
 1583 2.870 2.491  3.249 1.000 1.00000 2.870 1.000     16.021  23.000
 1584 2.890 2.509  3.271 1.000 1.00000 2.890 1.000     29.868  23.000
 1585 2.860 2.482  3.238 1.000 1.00000 2.860 1.000     13.639  23.000
 1586 2.880 2.500  3.260 1.000 1.00000 2.880 1.000     37.102  23.000
 1587 2.980 2.590  3.370 1.000 1.00000 2.980 1.000     47.841  23.000
 1588 2.890 2.509  3.271 1.000 1.00000 2.890 1.000      6.304  23.000
 1589 2.870 2.491  3.249 1.000 1.00000 2.870 1.000     29.500  23.000
 1590 2.880 2.500  3.260 1.000 1.00000 2.880 1.000     12.685  23.000
 1591 2.900 2.518  3.282 1.000 1.00000 2.900 1.000      8.696  23.000
 1592 2.860 2.482  3.238 1.000 1.00000 2.860 1.000     14.225  23.000
 1593 2.860 2.482  3.238 1.000 1.00000 2.860 1.000     24.828  23.000
 1594 2.880 2.500  3.260 1.000 1.00000 2.880 1.000     18.811  23.000
 1595 2.850 2.473  3.227 1.000 1.00000 2.850 1.000     23.818  23.000
 1596 2.920 2.536  3.304 1.000 1.00000 2.920 1.000     27.993  23.000
 1597 2.850 2.473  3.227 1.000 1.00000 2.850 1.000     30.452  23.000
 1598 2.850 2.473  3.227 1.000 1.00000 2.850 1.000      9.974  23.000
 1599 2.950 2.563  3.337 1.000 1.00000 2.950 1.000     34.012  23.000
 1600 2.890 2.509  3.271 1.000 1.00000 2.890 1.000      8.590  23.000
 1601 2.910 2.527  3.293 1.000 1.00000 2.910 1.000     24.065  23.000
 1602 2.920 2.536  3.304 1.000 1.00000 2.920 1.000     14.323  23.000
 1603 2.860 2.482  3.238 1.000 1.00000 2.860 1.000     16.825  23.000
 1604 2.850 2.473  3.227 1.000 1.00000 2.850 1.000     20.943  23.000
 1605 2.930 2.545  3.315 1.000 1.00000 2.930 1.000     33.181  23.000
 1606 2.900 2.518  3.282 1.000 1.00000 2.900 1.000     30.669  23.000
 1607 2.860 2.482  3.238 1.000 1.00000 2.860 1.000      6.378  23.000
 1608 2.930 2.545  3.315 1.000 1.00000 2.930 1.000     24.740  23.000
 1609 2.910 2.527  3.293 1.000 1.00000 2.910 1.000     10.134  23.000
 1610 2.890 2.509  3.271 1.000 1.00000 2.890 1.000     24.573  23.000
 1611 2.860 2.482  3.238 1.000 1.00000 2.860 1.000     15.606  23.000
 1612 2.850 2.473  3.227 1.000 1.00000 2.850 1.000      9.790  23.000
 1613 2.860 2.482  3.238 1.000 1.00000 2.860 1.000      5.368  23.000
 1614 2.890 2.509  3.271 1.000 1.00000 2.890 1.000     20.375  23.000
 1615 2.870 2.491  3.249 1.000 1.00000 2.870 1.000      8.737  23.000
 1616 2.860 2.482  3.238 1.000 1.00000 2.860 1.000     23.329  23.000
 1617 2.990 2.599  3.381 1.000 1.00000 2.990 1.000     56.638  23.000
 1618 2.870 2.491  3.249 1.000 1.00000 2.870 1.000      8.845  23.000
 1619 2.930 2.545  3.315 1.000 1.00000 2.930 1.000     32.189  23.000
 1620 2.940 2.554  3.326 1.000 1.00000 2.940 1.000     35.740  23.000
 1621 2.860 2.482  3.238 1.000 1.00000 2.860 1.000      5.040  23.000
 1622 2.870 2.491  3.249 1.000 1.00000 2.870 1.000     18.967  23.000
 1623 2.850 2.473  3.227 1.000 1.00000 2.850 1.000      9.793  23.000
 1624 2.880 2.500  3.260 1.000 1.00000 2.880 1.000     30.440  23.000
 1625 2.880 2.500  3.260 1.000 1.00000 2.880 1.000     53.138  23.000
 1626 2.910 2.527  3.293 1.000 1.00000 2.910 1.000     16.936  23.000
 1627 2.850 2.473  3.227 1.000 1.00000 2.850 1.000     18.893  23.000
 1628 2.850 2.473  3.227 1.000 1.00000 2.850 1.000     14.372  23.000
 1629 2.900 2.518  3.282 1.000 1.00000 2.900 1.000     22.207  23.000
 1630 2.860 2.482  3.238 1.000 1.00000 2.860 1.000     32.872  23.000
 1631 2.860 2.482  3.238 1.000 1.00000 2.860 1.000     29.778  23.000
 1632 2.840 2.464  3.216 1.000 1.00000 2.840 1.000      2.872  23.000
 1633 2.860 2.482  3.238 1.000 1.00000 2.860 1.000     12.161  23.000
 1634 2.880 2.500  3.260 1.000 1.00000 2.880 1.000     29.031  23.000
 1635 2.880 2.500  3.260 1.000 1.00000 2.880 1.000     18.409  23.000
 1636 2.890 2.509  3.271 1.000 1.00000 2.890 1.000     14.376  23.000
 1637 2.910 2.527  3.293 1.000 1.00000 2.910 1.000     24.055  23.000
 1638 2.850 2.473  3.227 1.000 1.00000 2.850 1.000      8.775  23.000
 1639 2.930 2.545  3.315 1.000 1.00000 2.930 1.000     61.191  23.000
 1640 2.880 2.500  3.260 1.000 1.00000 2.880 1.000     35.570  23.000
 1641 2.920 2.536  3.304 1.000 1.00000 2.920 1.000     16.338  23.000
 1642 2.900 2.518  3.282 1.000 1.00000 2.900 1.000     40.036  23.000
 1643 2.910 2.527  3.293 1.000 1.00000 2.910 1.000     28.927  23.000
 1644 2.870 2.491  3.249 1.000 1.00000 2.870 1.000     18.856  23.000
 1645 2.880 2.500  3.260 1.000 1.00000 2.880 1.000      8.752  23.000
 1646 2.860 2.482  3.238 1.000 1.00000 2.860 1.000      3.425  23.000
 1647 2.880 2.500  3.260 1.000 1.00000 2.880 1.000     10.850  23.000
 1648 2.850 2.473  3.227 1.000 1.00000 2.850 1.000     28.032  23.000
 1649 2.850 2.473  3.227 1.000 1.00000 2.850 1.000     13.865  23.000
 1650 2.860 2.482  3.238 1.000 1.00000 2.860 1.000      7.125  23.000
 1651 2.890 2.509  3.271 1.000 1.00000 2.890 1.000     24.628  23.000
 1652 2.870 2.491  3.249 1.000 1.00000 2.870 1.000     24.057  23.000
 1653 2.890 2.509  3.271 1.000 1.00000 2.890 1.000     24.807  23.000
 1654 2.870 2.491  3.249 1.000 1.00000 2.870 1.000     24.178  23.000
 1655 2.880 2.500  3.260 1.000 1.00000 2.880 1.000     16.536  23.000
 1656 2.860 2.482  3.238 1.000 1.00000 2.860 1.000     12.605  23.000
 1657 2.880 2.500  3.260 1.000 1.00000 2.880 1.000     20.930  23.000
 1658 2.920 2.536  3.304 1.000 1.00000 2.920 1.000     19.374  23.000
 1659 2.880 2.500  3.260 1.000 1.00000 2.880 1.000     17.558  23.000
 1660 2.870 2.491  3.249 1.000 1.00000 2.870 1.000      8.725  23.000
 1661 2.910 2.527  3.293 1.000 1.00000 2.910 1.000     11.918  23.000
 1662 2.880 2.500  3.260 1.000 1.00000 2.880 1.000     12.865  23.000
 1663 2.870 2.491  3.249 1.000 1.00000 2.870 1.000     10.995  23.000
 1664 2.860 2.482  3.238 1.000 1.00000 2.860 1.000     17.409  23.000
 1665 2.910 2.527  3.293 1.000 1.00000 2.910 1.000     11.083  23.000
 1666 2.940 2.554  3.326 1.000 1.00000 2.940 1.000     25.715  23.000
 1667 2.890 2.509  3.271 1.000 1.00000 2.890 1.000     48.308  23.000
 1668 2.900 2.518  3.282 1.000 1.00000 2.900 1.000     20.563  23.000
 1669 2.890 2.509  3.271 1.000 1.00000 2.890 1.000      6.162  23.000
 1670 2.860 2.482  3.238 1.000 1.00000 2.860 1.000     13.201  23.000
 1671 2.870 2.491  3.249 1.000 1.00000 2.870 1.000     33.088  23.000
 1672 2.870 2.491  3.249 1.000 1.00000 2.870 1.000      8.799  23.000
 1673 2.860 2.482  3.238 1.000 1.00000 2.860 1.000     23.065  23.000
 1674 2.940 2.554  3.326 1.000 1.00000 2.940 1.000     29.203  23.000
 1675 2.880 2.500  3.260 1.000 1.00000 2.880 1.000      7.790  23.000
 1676 2.860 2.482  3.238 1.000 1.00000 2.860 1.000     21.448  23.000
 1677 2.920 2.536  3.304 1.000 1.00000 2.920 1.000     23.025  23.000
 1678 2.910 2.527  3.293 1.000 1.00000 2.910 1.000     16.951  23.000
 1679 2.910 2.527  3.293 1.000 1.00000 2.910 1.000     10.829  23.000
 1680 2.860 2.482  3.238 1.000 1.00000 2.860 1.000      4.772  23.000
 1681 2.900 2.518  3.282 1.000 1.00000 2.900 1.000     41.917  23.000
 1682 2.890 2.509  3.271 1.000 1.00000 2.890 1.000     21.963  23.000
 1683 2.870 2.491  3.249 1.000 1.00000 2.870 1.000     18.174  23.000
 1684 2.860 2.482  3.238 1.000 1.00000 2.860 1.000     17.177  23.000
 1685 2.910 2.527  3.293 1.000 1.00000 2.910 1.000     34.431  23.000
 1686 2.900 2.518  3.282 1.000 1.00000 2.900 1.000     26.121  23.000
 1687 2.920 2.536  3.304 1.000 1.00000 2.920 1.000     16.787  23.000
 1688 2.910 2.527  3.293 1.000 1.00000 2.910 1.000     20.494  23.000
 1689 2.860 2.482  3.238 1.000 1.00000 2.860 1.000     16.195  23.000
 1690 2.860 2.482  3.238 1.000 1.00000 2.860 1.000     12.764  23.000
 1691 2.890 2.509  3.271 1.000 1.00000 2.890 1.000     11.645  23.000
 1692 2.860 2.482  3.238 1.000 1.00000 2.860 1.000     36.271  23.000
 1693 2.860 2.482  3.238 1.000 1.00000 2.860 1.000     28.412  23.000
 1694 2.840 2.464  3.216 1.000 1.00000 2.840 1.000      3.897  23.000
 1695 2.860 2.482  3.238 1.000 1.00000 2.860 1.000     28.469  23.000
 1696 2.850 2.473  3.227 1.000 1.00000 2.850 1.000      9.291  23.000
 1697 2.900 2.518  3.282 1.000 1.00000 2.900 1.000     21.747  23.000
 1698 2.860 2.482  3.238 1.000 1.00000 2.860 1.000     15.838  23.000
 1699 2.840 2.464  3.216 1.000 1.00000 2.840 1.000      4.671  23.000
 1700 2.870 2.491  3.249 1.000 1.00000 2.870 1.000     33.801  23.000
