## File LOS/SB2_B2004a_1.9z_Mags_1800.bpz  Sat Aug 13 01:37:46 2016
##
##Parameters used to run BPZ:
##
##AB_DIR=/home/lidenscheng/bpz-1.99.3//AB/
##ADD_CONTINUOUS_PROB=None
##ADD_SPEC_PROB=None
##CHECK=LOS/SB2_B2004a_1.9z_Mags_1800.flux_comparison
##COLOR=no
##COLUMNS=losNoErrors.columns
##CONVOLVE_P=yes
##DELTA_M_0=0.0
##DZ=0.01
##EXCLUDE=none
##FC=None
##FILTER_DIR=/home/lidenscheng/MK_DirectSim/filters/
##GET_Z=yes
##INPUT=LOS/SB2_B2004a_1.9z_Mags_1800.txt
##INTERACTIVE=yes
##INTERP=0
##MADAU=no
##MAG=yes
##MEAN_IGM=yes
##MERGE_PEAKS=no
##MIN_MAGERR=0.001
##MIN_RMS=0.05
##NEW_AB=no
##NMAX=None
##NTYPES=None
##N_PEAKS=1
##ODDS=0.95
##ONLY_TYPE=no
##OUTPUT=LOS/SB2_B2004a_1.9z_Mags_1800.bpz
##PHOTO_ERRORS=no
##PLOTS=no
##PRIOR=none
##PROBS=no
##PROBS2=no
##PROBS_LITE=LOS/SB2_B2004a_1.9z_Mags_1800.probs
##P_MIN=0.01
##SED_DIR=/home/lidenscheng/MK_DirectSim/SEDs/
##SPECTRA=SB2.list
##VERBOSE=yes
##ZC=None
##ZMAX=10.0
##ZMIN=0.01
##ZP_OFFSETS=0.0
##Z_THR=0
##
##Column information
##
# 1 ID
# 2 Z_B
# 3 Z_B_MIN
# 4 Z_B_MAX
# 5 T_B
# 6 ODDS    
# 7 Z_ML
# 8 T_ML
# 9 CHI-SQUARED
# 10 M_0
##
    1 1.930 1.643  2.217 1.000 1.00000 1.930 1.000      2.868  23.000
    2 1.920 1.634  2.206 1.000 1.00000 1.920 1.000      0.901  23.000
    3 1.920 1.634  2.206 1.000 1.00000 1.920 1.000      0.393  23.000
    4 1.920 1.634  2.206 1.000 1.00000 1.920 1.000      0.716  23.000
    5 1.920 1.634  2.206 1.000 1.00000 1.920 1.000      0.647  23.000
    6 1.960 1.670  2.250 1.000 1.00000 1.960 1.000     31.262  23.000
    7 1.930 1.643  2.217 1.000 1.00000 1.930 1.000      4.478  23.000
    8 1.930 1.643  2.217 1.000 1.00000 1.930 1.000      3.039  23.000
    9 1.920 1.634  2.206 1.000 1.00000 1.920 1.000      0.530  23.000
   10 1.920 1.634  2.206 1.000 1.00000 1.920 1.000      0.317  23.000
   11 1.920 1.634  2.206 1.000 1.00000 1.920 1.000      0.604  23.000
   12 1.960 1.670  2.250 1.000 1.00000 1.960 1.000      8.444  23.000
   13 1.960 1.670  2.250 1.000 1.00000 1.960 1.000     10.475  23.000
   14 1.920 1.634  2.206 1.000 1.00000 1.920 1.000      1.300  23.000
   15 1.920 1.634  2.206 1.000 1.00000 1.920 1.000      2.047  23.000
   16 1.920 1.634  2.206 1.000 1.00000 1.920 1.000      0.305  23.000
   17 1.960 1.670  2.250 1.000 1.00000 1.960 1.000     51.150  23.000
   18 1.920 1.634  2.206 1.000 1.00000 1.920 1.000      0.325  23.000
   19 1.960 1.670  2.250 1.000 1.00000 1.960 1.000      7.950  23.000
   20 1.920 1.634  2.206 1.000 1.00000 1.920 1.000      0.325  23.000
   21 1.920 1.634  2.206 1.000 1.00000 1.920 1.000      1.175  23.000
   22 1.960 1.670  2.250 1.000 1.00000 1.960 1.000     12.511  23.000
   23 1.920 1.634  2.206 1.000 1.00000 1.920 1.000      0.308  23.000
   24 1.960 1.670  2.250 1.000 1.00000 1.960 1.000     17.035  23.000
   25 1.960 1.670  2.250 1.000 1.00000 1.960 1.000     14.911  23.000
   26 1.940 1.652  2.228 1.000 1.00000 1.930 1.000      7.352  23.000
   27 1.920 1.634  2.206 1.000 1.00000 1.920 1.000      0.442  23.000
   28 1.960 1.670  2.250 1.000 1.00000 1.960 1.000      7.506  23.000
   29 1.920 1.634  2.206 1.000 1.00000 1.920 1.000      0.480  23.000
   30 1.930 1.643  2.217 1.000 1.00000 1.930 1.000      2.797  23.000
   31 1.930 1.643  2.217 1.000 1.00000 1.930 1.000      6.537  23.000
   32 1.930 1.643  2.217 1.000 1.00000 1.930 1.000      3.089  23.000
   33 1.920 1.634  2.206 1.000 1.00000 1.920 1.000      2.112  23.000
   34 1.930 1.643  2.217 1.000 1.00000 1.930 1.000      3.216  23.000
   35 1.920 1.634  2.206 1.000 1.00000 1.920 1.000      0.729  23.000
   36 1.920 1.634  2.206 1.000 1.00000 1.920 1.000      0.965  23.000
   37 1.960 1.670  2.250 1.000 1.00000 1.960 1.000     18.635  23.000
   38 1.960 1.670  2.250 1.000 1.00000 1.960 1.000     18.197  23.000
   39 1.960 1.670  2.250 1.000 1.00000 1.960 1.000     12.970  23.000
   40 1.960 1.670  2.250 1.000 1.00000 1.960 1.000      8.126  23.000
   41 1.930 1.643  2.217 1.000 1.00000 1.930 1.000      3.758  23.000
   42 1.960 1.670  2.250 1.000 1.00000 1.960 1.000     17.035  23.000
   43 1.920 1.634  2.206 1.000 1.00000 1.920 1.000      0.487  23.000
   44 1.930 1.643  2.217 1.000 1.00000 1.930 1.000      2.374  23.000
   45 1.930 1.643  2.217 1.000 1.00000 1.930 1.000      2.750  23.000
   46 1.920 1.634  2.206 1.000 1.00000 1.920 1.000      0.562  23.000
   47 1.920 1.634  2.206 1.000 1.00000 1.920 1.000      0.522  23.000
   48 1.930 1.643  2.217 1.000 1.00000 1.930 1.000      6.264  23.000
   49 1.920 1.634  2.206 1.000 1.00000 1.920 1.000      0.695  23.000
   50 1.920 1.634  2.206 1.000 1.00000 1.920 1.000      0.307  23.000
   51 1.960 1.670  2.250 1.000 1.00000 1.960 1.000      7.895  23.000
   52 1.960 1.670  2.250 1.000 1.00000 1.960 1.000     10.806  23.000
   53 1.920 1.634  2.206 1.000 1.00000 1.920 1.000      1.861  23.000
   54 1.960 1.670  2.250 1.000 1.00000 1.960 1.000      8.592  23.000
   55 1.960 1.670  2.250 1.000 1.00000 1.960 1.000      7.732  23.000
   56 1.920 1.634  2.206 1.000 1.00000 1.920 1.000      1.316  23.000
   57 1.960 1.670  2.250 1.000 1.00000 1.960 1.000      7.552  23.000
   58 1.920 1.634  2.206 1.000 1.00000 1.920 1.000      1.592  23.000
   59 1.930 1.643  2.217 1.000 1.00000 1.930 1.000      6.656  23.000
   60 1.960 1.670  2.250 1.000 1.00000 1.960 1.000      8.809  23.000
   61 1.960 1.670  2.250 1.000 1.00000 1.960 1.000      7.552  23.000
   62 1.960 1.670  2.250 1.000 1.00000 1.960 1.000      8.592  23.000
   63 1.920 1.634  2.206 1.000 1.00000 1.920 1.000      0.389  23.000
   64 1.920 1.634  2.206 1.000 1.00000 1.920 1.000      0.305  23.000
   65 1.930 1.643  2.217 1.000 1.00000 1.930 1.000      4.867  23.000
   66 1.930 1.643  2.217 1.000 1.00000 1.930 1.000      3.931  23.000
   67 1.920 1.634  2.206 1.000 1.00000 1.920 1.000      0.538  23.000
   68 1.920 1.634  2.206 1.000 1.00000 1.920 1.000      0.479  23.000
   69 1.930 1.643  2.217 1.000 1.00000 1.930 1.000      3.114  23.000
   70 1.930 1.643  2.217 1.000 1.00000 1.930 1.000      6.036  23.000
   71 1.930 1.643  2.217 1.000 1.00000 1.930 1.000      3.089  23.000
   72 1.930 1.643  2.217 1.000 1.00000 1.930 1.000      4.384  23.000
   73 1.920 1.634  2.206 1.000 1.00000 1.920 1.000      0.817  23.000
   74 1.920 1.634  2.206 1.000 1.00000 1.920 1.000      0.408  23.000
   75 1.960 1.670  2.250 1.000 1.00000 1.960 1.000      8.955  23.000
   76 1.920 1.634  2.206 1.000 1.00000 1.920 1.000      2.090  23.000
   77 1.930 1.643  2.217 1.000 1.00000 1.930 1.000      5.887  23.000
   78 1.920 1.634  2.206 1.000 1.00000 1.920 1.000      0.761  23.000
   79 1.920 1.634  2.206 1.000 1.00000 1.920 1.000      0.685  23.000
   80 1.930 1.643  2.217 1.000 1.00000 1.930 1.000      6.419  23.000
   81 1.930 1.643  2.217 1.000 1.00000 1.930 1.000      3.873  23.000
   82 1.920 1.634  2.206 1.000 1.00000 1.920 1.000      0.363  23.000
   83 1.930 1.643  2.217 1.000 1.00000 1.930 1.000      2.438  23.000
   84 1.920 1.634  2.206 1.000 1.00000 1.920 1.000      0.384  23.000
   85 1.930 1.643  2.217 1.000 1.00000 1.930 1.000      2.353  23.000
   86 1.920 1.634  2.206 1.000 1.00000 1.920 1.000      0.325  23.000
   87 1.920 1.634  2.206 1.000 1.00000 1.920 1.000      0.631  23.000
   88 1.960 1.670  2.250 1.000 1.00000 1.960 1.000     24.385  23.000
   89 1.920 1.634  2.206 1.000 1.00000 1.920 1.000      0.359  23.000
   90 1.930 1.643  2.217 1.000 1.00000 1.930 1.000      4.230  23.000
   91 1.930 1.643  2.217 1.000 1.00000 1.930 1.000      5.594  23.000
   92 1.960 1.670  2.250 1.000 1.00000 1.960 1.000      7.843  23.000
   93 1.920 1.634  2.206 1.000 1.00000 1.920 1.000      1.073  23.000
   94 1.930 1.643  2.217 1.000 1.00000 1.930 1.000      7.101  23.000
   95 1.930 1.643  2.217 1.000 1.00000 1.930 1.000      2.438  23.000
   96 1.960 1.670  2.250 1.000 1.00000 1.960 1.000     53.288  23.000
   97 1.920 1.634  2.206 1.000 1.00000 1.920 1.000      0.669  23.000
   98 1.960 1.670  2.250 1.000 1.00000 1.960 1.000      7.744  23.000
   99 1.960 1.670  2.250 1.000 1.00000 1.960 1.000     11.348  23.000
  100 1.920 1.634  2.206 1.000 1.00000 1.920 1.000      1.861  23.000
  101 1.930 1.643  2.217 1.000 1.00000 1.930 1.000      2.568  23.000
  102 1.920 1.634  2.206 1.000 1.00000 1.920 1.000      0.419  23.000
  103 1.960 1.670  2.250 1.000 1.00000 1.960 1.000      8.630  23.000
  104 1.920 1.634  2.206 1.000 1.00000 1.920 1.000      1.284  23.000
  105 1.930 1.643  2.217 1.000 1.00000 1.930 1.000      3.844  23.000
  106 1.930 1.643  2.217 1.000 1.00000 1.930 1.000      2.989  23.000
  107 1.930 1.643  2.217 1.000 1.00000 1.930 1.000      4.260  23.000
  108 1.920 1.634  2.206 1.000 1.00000 1.920 1.000      1.332  23.000
  109 1.960 1.670  2.250 1.000 1.00000 1.960 1.000     20.300  23.000
  110 1.920 1.634  2.206 1.000 1.00000 1.920 1.000      1.801  23.000
  111 1.920 1.634  2.206 1.000 1.00000 1.920 1.000      1.102  23.000
  112 1.950 1.661  2.239 1.000 1.00000 1.960 1.000      7.432  23.000
  113 1.960 1.670  2.250 1.000 1.00000 1.960 1.000     24.728  23.000
  114 1.920 1.634  2.206 1.000 1.00000 1.920 1.000      0.308  23.000
  115 1.920 1.634  2.206 1.000 1.00000 1.920 1.000      0.772  23.000
  116 1.960 1.670  2.250 1.000 1.00000 1.960 1.000      9.996  23.000
  117 1.960 1.670  2.250 1.000 1.00000 1.960 1.000     10.161  23.000
  118 1.920 1.634  2.206 1.000 1.00000 1.920 1.000      0.544  23.000
  119 1.920 1.634  2.206 1.000 1.00000 1.920 1.000      0.794  23.000
  120 1.920 1.634  2.206 1.000 1.00000 1.920 1.000      0.419  23.000
  121 1.930 1.643  2.217 1.000 1.00000 1.930 1.000      5.776  23.000
  122 1.920 1.634  2.206 1.000 1.00000 1.920 1.000      0.688  23.000
  123 1.960 1.670  2.250 1.000 1.00000 1.960 1.000      9.291  23.000
  124 1.960 1.670  2.250 1.000 1.00000 1.960 1.000      7.653  23.000
  125 1.920 1.634  2.206 1.000 1.00000 1.920 1.000      0.430  23.000
  126 1.930 1.643  2.217 1.000 1.00000 1.930 1.000      2.965  23.000
  127 1.920 1.634  2.206 1.000 1.00000 1.920 1.000      1.190  23.000
  128 1.930 1.643  2.217 1.000 1.00000 1.930 1.000      3.216  23.000
  129 1.960 1.670  2.250 1.000 1.00000 1.960 1.000     16.430  23.000
  130 1.930 1.643  2.217 1.000 1.00000 1.930 1.000      4.291  23.000
  131 1.960 1.670  2.250 1.000 1.00000 1.960 1.000      9.020  23.000
  132 1.930 1.643  2.217 1.000 1.00000 1.930 1.000      3.216  23.000
  133 1.960 1.670  2.250 1.000 1.00000 1.960 1.000     12.893  23.000
  134 1.930 1.643  2.217 1.000 1.00000 1.930 1.000      6.856  23.000
  135 1.930 1.643  2.217 1.000 1.00000 1.930 1.000      3.590  23.000
  136 1.950 1.661  2.239 1.000 1.00000 1.960 1.000      7.447  23.000
  137 1.960 1.670  2.250 1.000 1.00000 1.960 1.000      8.036  23.000
  138 1.960 1.670  2.250 1.000 1.00000 1.960 1.000      8.809  23.000
  139 1.920 1.634  2.206 1.000 1.00000 1.920 1.000      0.375  23.000
  140 1.920 1.634  2.206 1.000 1.00000 1.920 1.000      0.538  23.000
  141 1.920 1.634  2.206 1.000 1.00000 1.920 1.000      0.306  23.000
  142 1.920 1.634  2.206 1.000 1.00000 1.920 1.000      0.419  23.000
  143 1.920 1.634  2.206 1.000 1.00000 1.920 1.000      0.352  23.000
  144 1.960 1.670  2.250 1.000 1.00000 1.960 1.000      9.064  23.000
  145 1.960 1.670  2.250 1.000 1.00000 1.960 1.000      8.789  23.000
  146 1.960 1.670  2.250 1.000 1.00000 1.960 1.000      8.305  23.000
  147 1.920 1.634  2.206 1.000 1.00000 1.920 1.000      0.698  23.000
  148 1.920 1.634  2.206 1.000 1.00000 1.920 1.000      0.578  23.000
  149 1.960 1.670  2.250 1.000 1.00000 1.960 1.000     27.081  23.000
  150 1.920 1.634  2.206 1.000 1.00000 1.920 1.000      0.688  23.000
  151 1.930 1.643  2.217 1.000 1.00000 1.930 1.000      2.291  23.000
  152 1.930 1.643  2.217 1.000 1.00000 1.930 1.000      2.438  23.000
  153 1.920 1.634  2.206 1.000 1.00000 1.920 1.000      1.484  23.000
  154 1.920 1.634  2.206 1.000 1.00000 1.920 1.000      0.473  23.000
  155 1.960 1.670  2.250 1.000 1.00000 1.960 1.000     10.564  23.000
  156 1.930 1.643  2.217 1.000 1.00000 1.930 1.000      3.990  23.000
  157 1.930 1.643  2.217 1.000 1.00000 1.930 1.000      3.242  23.000
  158 1.920 1.634  2.206 1.000 1.00000 1.920 1.000      1.382  23.000
  159 1.960 1.670  2.250 1.000 1.00000 1.960 1.000      9.198  23.000
  160 1.930 1.643  2.217 1.000 1.00000 1.930 1.000      7.060  23.000
  161 1.920 1.634  2.206 1.000 1.00000 1.920 1.000      0.847  23.000
  162 1.960 1.670  2.250 1.000 1.00000 1.960 1.000      9.482  23.000
  163 1.920 1.634  2.206 1.000 1.00000 1.920 1.000      2.112  23.000
  164 1.930 1.643  2.217 1.000 1.00000 1.930 1.000      4.934  23.000
  165 1.930 1.643  2.217 1.000 1.00000 1.930 1.000      4.606  23.000
  166 1.960 1.670  2.250 1.000 1.00000 1.960 1.000     17.293  23.000
  167 1.930 1.643  2.217 1.000 1.00000 1.930 1.000      6.074  23.000
  168 1.960 1.670  2.250 1.000 1.00000 1.960 1.000     14.553  23.000
  169 1.960 1.670  2.250 1.000 1.00000 1.960 1.000     10.714  23.000
  170 1.960 1.670  2.250 1.000 1.00000 1.960 1.000     10.446  23.000
  171 1.920 1.634  2.206 1.000 1.00000 1.920 1.000      0.480  23.000
  172 1.960 1.670  2.250 1.000 1.00000 1.960 1.000     10.868  23.000
  173 1.920 1.634  2.206 1.000 1.00000 1.920 1.000      1.018  23.000
  174 1.920 1.634  2.206 1.000 1.00000 1.920 1.000      0.375  23.000
  175 1.940 1.652  2.228 1.000 1.00000 1.960 1.000      7.409  23.000
  176 1.960 1.670  2.250 1.000 1.00000 1.960 1.000     11.481  23.000
  177 1.960 1.670  2.250 1.000 1.00000 1.960 1.000      9.996  23.000
  178 1.930 1.643  2.217 1.000 1.00000 1.930 1.000      3.294  23.000
  179 1.960 1.670  2.250 1.000 1.00000 1.960 1.000      7.805  23.000
  180 1.920 1.634  2.206 1.000 1.00000 1.920 1.000      0.544  23.000
  181 1.930 1.643  2.217 1.000 1.00000 1.930 1.000      5.961  23.000
  182 1.960 1.670  2.250 1.000 1.00000 1.960 1.000     27.451  23.000
  183 1.960 1.670  2.250 1.000 1.00000 1.960 1.000     10.051  23.000
  184 1.960 1.670  2.250 1.000 1.00000 1.960 1.000      7.830  23.000
  185 1.930 1.643  2.217 1.000 1.00000 1.930 1.000      4.019  23.000
  186 1.920 1.634  2.206 1.000 1.00000 1.920 1.000      0.436  23.000
  187 1.930 1.643  2.217 1.000 1.00000 1.930 1.000      7.226  23.000
  188 1.920 1.634  2.206 1.000 1.00000 1.920 1.000      0.380  23.000
  189 1.930 1.643  2.217 1.000 1.00000 1.930 1.000      6.537  23.000
  190 1.920 1.634  2.206 1.000 1.00000 1.920 1.000      0.913  23.000
  191 1.960 1.670  2.250 1.000 1.00000 1.960 1.000      7.922  23.000
  192 1.960 1.670  2.250 1.000 1.00000 1.960 1.000      7.533  23.000
  193 1.930 1.643  2.217 1.000 1.00000 1.930 1.000      6.498  23.000
  194 1.960 1.670  2.250 1.000 1.00000 1.960 1.000     12.970  23.000
  195 1.920 1.634  2.206 1.000 1.00000 1.920 1.000      0.729  23.000
  196 1.920 1.634  2.206 1.000 1.00000 1.920 1.000      0.328  23.000
  197 1.920 1.634  2.206 1.000 1.00000 1.920 1.000      1.704  23.000
  198 1.920 1.634  2.206 1.000 1.00000 1.920 1.000      0.783  23.000
  199 1.920 1.634  2.206 1.000 1.00000 1.920 1.000      0.521  23.000
  200 1.930 1.643  2.217 1.000 1.00000 1.930 1.000      3.114  23.000
  201 1.930 1.643  2.217 1.000 1.00000 1.930 1.000      2.332  23.000
  202 1.960 1.670  2.250 1.000 1.00000 1.960 1.000     11.720  23.000
  203 1.920 1.634  2.206 1.000 1.00000 1.920 1.000      0.307  23.000
  204 1.930 1.643  2.217 1.000 1.00000 1.930 1.000      5.310  23.000
  205 1.920 1.634  2.206 1.000 1.00000 1.920 1.000      0.330  23.000
  206 1.920 1.634  2.206 1.000 1.00000 1.920 1.000      1.942  23.000
  207 1.930 1.643  2.217 1.000 1.00000 1.930 1.000      5.522  23.000
  208 1.920 1.634  2.206 1.000 1.00000 1.920 1.000      1.484  23.000
  209 1.920 1.634  2.206 1.000 1.00000 1.920 1.000      0.965  23.000
  210 1.960 1.670  2.250 1.000 1.00000 1.960 1.000     11.024  23.000
  211 1.920 1.634  2.206 1.000 1.00000 1.920 1.000      0.454  23.000
  212 1.920 1.634  2.206 1.000 1.00000 1.920 1.000      0.620  23.000
  213 1.920 1.634  2.206 1.000 1.00000 1.920 1.000      0.453  23.000
  214 1.920 1.634  2.206 1.000 1.00000 1.920 1.000      0.454  23.000
  215 1.960 1.670  2.250 1.000 1.00000 1.960 1.000      9.836  23.000
  216 1.930 1.643  2.217 1.000 1.00000 1.930 1.000      2.774  23.000
  217 1.920 1.634  2.206 1.000 1.00000 1.920 1.000      0.530  23.000
  218 1.930 1.643  2.217 1.000 1.00000 1.930 1.000      3.242  23.000
  219 1.960 1.670  2.250 1.000 1.00000 1.960 1.000     11.056  23.000
  220 1.920 1.634  2.206 1.000 1.00000 1.920 1.000      1.102  23.000
  221 1.960 1.670  2.250 1.000 1.00000 1.960 1.000      8.322  23.000
  222 1.940 1.652  2.228 1.000 1.00000 1.930 1.000      7.268  23.000
  223 1.960 1.670  2.250 1.000 1.00000 1.960 1.000      8.081  23.000
  224 1.920 1.634  2.206 1.000 1.00000 1.920 1.000      0.336  23.000
  225 1.920 1.634  2.206 1.000 1.00000 1.920 1.000      0.740  23.000
  226 1.930 1.643  2.217 1.000 1.00000 1.930 1.000      7.226  23.000
  227 1.930 1.643  2.217 1.000 1.00000 1.930 1.000      3.931  23.000
  228 1.930 1.643  2.217 1.000 1.00000 1.930 1.000      4.079  23.000
  229 1.920 1.634  2.206 1.000 1.00000 1.920 1.000      1.398  23.000
  230 1.960 1.670  2.250 1.000 1.00000 1.960 1.000     16.629  23.000
  231 1.930 1.643  2.217 1.000 1.00000 1.930 1.000      5.813  23.000
  232 1.960 1.670  2.250 1.000 1.00000 1.960 1.000     16.579  23.000
  233 1.960 1.670  2.250 1.000 1.00000 1.960 1.000      8.021  23.000
  234 1.960 1.670  2.250 1.000 1.00000 1.960 1.000      9.836  23.000
  235 1.920 1.634  2.206 1.000 1.00000 1.920 1.000      0.393  23.000
  236 1.960 1.670  2.250 1.000 1.00000 1.960 1.000      7.950  23.000
  237 1.920 1.634  2.206 1.000 1.00000 1.920 1.000      0.355  23.000
  238 1.930 1.643  2.217 1.000 1.00000 1.930 1.000      5.451  23.000
  239 1.920 1.634  2.206 1.000 1.00000 1.920 1.000      0.304  23.000
  240 1.920 1.634  2.206 1.000 1.00000 1.920 1.000      1.018  23.000
  241 1.930 1.643  2.217 1.000 1.00000 1.930 1.000      4.574  23.000
  242 1.960 1.670  2.250 1.000 1.00000 1.960 1.000     11.754  23.000
  243 1.960 1.670  2.250 1.000 1.00000 1.960 1.000     10.417  23.000
  244 1.920 1.634  2.206 1.000 1.00000 1.920 1.000      0.772  23.000
  245 1.920 1.634  2.206 1.000 1.00000 1.920 1.000      0.538  23.000
  246 1.960 1.670  2.250 1.000 1.00000 1.960 1.000     10.417  23.000
  247 1.920 1.634  2.206 1.000 1.00000 1.920 1.000      1.821  23.000
  248 1.920 1.634  2.206 1.000 1.00000 1.920 1.000      1.762  23.000
  249 1.920 1.634  2.206 1.000 1.00000 1.920 1.000      1.102  23.000
  250 1.930 1.643  2.217 1.000 1.00000 1.930 1.000      2.797  23.000
  251 1.920 1.634  2.206 1.000 1.00000 1.920 1.000      1.502  23.000
  252 1.930 1.643  2.217 1.000 1.00000 1.930 1.000      5.380  23.000
  253 1.960 1.670  2.250 1.000 1.00000 1.960 1.000     36.572  23.000
  254 1.920 1.634  2.206 1.000 1.00000 1.920 1.000      0.585  23.000
  255 1.920 1.634  2.206 1.000 1.00000 1.920 1.000      0.806  23.000
  256 1.960 1.670  2.250 1.000 1.00000 1.960 1.000     10.868  23.000
  257 1.960 1.670  2.250 1.000 1.00000 1.960 1.000     19.597  23.000
  258 1.920 1.634  2.206 1.000 1.00000 1.920 1.000      0.479  23.000
  259 1.920 1.634  2.206 1.000 1.00000 1.920 1.000      1.102  23.000
  260 1.960 1.670  2.250 1.000 1.00000 1.960 1.000     20.659  23.000
  261 1.920 1.634  2.206 1.000 1.00000 1.920 1.000      0.312  23.000
  262 1.920 1.634  2.206 1.000 1.00000 1.920 1.000      0.312  23.000
  263 1.960 1.670  2.250 1.000 1.00000 1.960 1.000     20.063  23.000
  264 1.930 1.643  2.217 1.000 1.00000 1.930 1.000      3.039  23.000
  265 1.920 1.634  2.206 1.000 1.00000 1.920 1.000      1.467  23.000
  266 1.960 1.670  2.250 1.000 1.00000 1.960 1.000      7.571  23.000
  267 1.930 1.643  2.217 1.000 1.00000 1.930 1.000      4.735  23.000
  268 1.930 1.643  2.217 1.000 1.00000 1.930 1.000      2.395  23.000
  269 1.930 1.643  2.217 1.000 1.00000 1.930 1.000      3.786  23.000
  270 1.920 1.634  2.206 1.000 1.00000 1.920 1.000      0.436  23.000
  271 1.960 1.670  2.250 1.000 1.00000 1.960 1.000     10.868  23.000
  272 1.960 1.670  2.250 1.000 1.00000 1.960 1.000      9.244  23.000
  273 1.930 1.643  2.217 1.000 1.00000 1.930 1.000      4.606  23.000
  274 1.960 1.670  2.250 1.000 1.00000 1.960 1.000      7.909  23.000
  275 1.960 1.670  2.250 1.000 1.00000 1.960 1.000      9.656  23.000
  276 1.930 1.643  2.217 1.000 1.00000 1.930 1.000      5.522  23.000
  277 1.920 1.634  2.206 1.000 1.00000 1.920 1.000      0.328  23.000
  278 1.960 1.670  2.250 1.000 1.00000 1.960 1.000      8.339  23.000
  279 1.920 1.634  2.206 1.000 1.00000 1.920 1.000      1.023  23.000
  280 1.930 1.643  2.217 1.000 1.00000 1.930 1.000      5.667  23.000
  281 1.950 1.661  2.239 1.000 1.00000 1.960 1.000      7.463  23.000
  282 1.920 1.634  2.206 1.000 1.00000 1.920 1.000      0.467  23.000
  283 1.920 1.634  2.206 1.000 1.00000 1.920 1.000      0.678  23.000
  284 1.930 1.643  2.217 1.000 1.00000 1.930 1.000      2.332  23.000
  285 1.950 1.661  2.239 1.000 1.00000 1.960 1.000      7.480  23.000
  286 1.920 1.634  2.206 1.000 1.00000 1.920 1.000      0.595  23.000
  287 1.920 1.634  2.206 1.000 1.00000 1.920 1.000      0.695  23.000
  288 1.930 1.643  2.217 1.000 1.00000 1.930 1.000      3.320  23.000
  289 1.930 1.643  2.217 1.000 1.00000 1.930 1.000      4.900  23.000
  290 1.960 1.670  2.250 1.000 1.00000 1.960 1.000     11.250  23.000
  291 1.960 1.670  2.250 1.000 1.00000 1.960 1.000      8.871  23.000
  292 1.930 1.643  2.217 1.000 1.00000 1.930 1.000      7.060  23.000
  293 1.960 1.670  2.250 1.000 1.00000 1.960 1.000     18.746  23.000
  294 1.920 1.634  2.206 1.000 1.00000 1.920 1.000      1.032  23.000
  295 1.920 1.634  2.206 1.000 1.00000 1.920 1.000      1.004  23.000
  296 1.930 1.643  2.217 1.000 1.00000 1.930 1.000      4.510  23.000
  297 1.920 1.634  2.206 1.000 1.00000 1.920 1.000      0.466  23.000
  298 1.960 1.670  2.250 1.000 1.00000 1.960 1.000      8.391  23.000
  299 1.930 1.643  2.217 1.000 1.00000 1.930 1.000      3.165  23.000
  300 1.960 1.670  2.250 1.000 1.00000 1.960 1.000      7.843  23.000
  301 1.960 1.670  2.250 1.000 1.00000 1.960 1.000      9.108  23.000
  302 1.930 1.643  2.217 1.000 1.00000 1.930 1.000      3.990  23.000
  303 1.920 1.634  2.206 1.000 1.00000 1.920 1.000      1.520  23.000
  304 1.960 1.670  2.250 1.000 1.00000 1.960 1.000      8.829  23.000
  305 1.960 1.670  2.250 1.000 1.00000 1.960 1.000      8.081  23.000
  306 1.920 1.634  2.206 1.000 1.00000 1.920 1.000      0.308  23.000
  307 1.920 1.634  2.206 1.000 1.00000 1.920 1.000      0.740  23.000
  308 1.920 1.634  2.206 1.000 1.00000 1.920 1.000      0.352  23.000
  309 1.930 1.643  2.217 1.000 1.00000 1.930 1.000      2.568  23.000
  310 1.920 1.634  2.206 1.000 1.00000 1.920 1.000      1.018  23.000
  311 1.920 1.634  2.206 1.000 1.00000 1.920 1.000      0.508  23.000
  312 1.960 1.670  2.250 1.000 1.00000 1.960 1.000      7.843  23.000
  313 1.920 1.634  2.206 1.000 1.00000 1.920 1.000      0.530  23.000
  314 1.920 1.634  2.206 1.000 1.00000 1.920 1.000      1.284  23.000
  315 1.920 1.634  2.206 1.000 1.00000 1.920 1.000      1.160  23.000
  316 1.930 1.643  2.217 1.000 1.00000 1.930 1.000      5.380  23.000
  317 1.960 1.670  2.250 1.000 1.00000 1.960 1.000     14.865  23.000
  318 1.960 1.670  2.250 1.000 1.00000 1.960 1.000     11.056  23.000
  319 1.950 1.661  2.239 1.000 1.00000 1.960 1.000      7.480  23.000
  320 1.920 1.634  2.206 1.000 1.00000 1.920 1.000      0.553  23.000
  321 1.920 1.634  2.206 1.000 1.00000 1.920 1.000      0.978  23.000
  322 1.960 1.670  2.250 1.000 1.00000 1.960 1.000     14.246  23.000
  323 1.930 1.643  2.217 1.000 1.00000 1.930 1.000      6.036  23.000
  324 1.920 1.634  2.206 1.000 1.00000 1.920 1.000      1.467  23.000
  325 1.920 1.634  2.206 1.000 1.00000 1.920 1.000      0.888  23.000
  326 1.920 1.634  2.206 1.000 1.00000 1.920 1.000      0.307  23.000
  327 1.960 1.670  2.250 1.000 1.00000 1.960 1.000      8.554  23.000
  328 1.920 1.634  2.206 1.000 1.00000 1.920 1.000      0.359  23.000
  329 1.920 1.634  2.206 1.000 1.00000 1.920 1.000      0.389  23.000
  330 1.960 1.670  2.250 1.000 1.00000 1.960 1.000      7.780  23.000
  331 1.960 1.670  2.250 1.000 1.00000 1.960 1.000      9.042  23.000
  332 1.960 1.670  2.250 1.000 1.00000 1.960 1.000     11.929  23.000
  333 1.920 1.634  2.206 1.000 1.00000 1.920 1.000      0.403  23.000
  334 1.930 1.643  2.217 1.000 1.00000 1.930 1.000      4.353  23.000
  335 1.930 1.643  2.217 1.000 1.00000 1.930 1.000      2.704  23.000
  336 1.920 1.634  2.206 1.000 1.00000 1.920 1.000      0.562  23.000
  337 1.930 1.643  2.217 1.000 1.00000 1.930 1.000      6.656  23.000
  338 1.930 1.643  2.217 1.000 1.00000 1.930 1.000      3.165  23.000
  339 1.920 1.634  2.206 1.000 1.00000 1.920 1.000      0.952  23.000
  340 1.920 1.634  2.206 1.000 1.00000 1.920 1.000      1.116  23.000
  341 1.930 1.643  2.217 1.000 1.00000 1.930 1.000      4.019  23.000
  342 1.920 1.634  2.206 1.000 1.00000 1.920 1.000      0.521  23.000
  343 1.930 1.643  2.217 1.000 1.00000 1.930 1.000      2.395  23.000
  344 1.960 1.670  2.250 1.000 1.00000 1.960 1.000     14.553  23.000
  345 1.960 1.670  2.250 1.000 1.00000 1.960 1.000     10.273  23.000
  346 1.920 1.634  2.206 1.000 1.00000 1.920 1.000      0.640  23.000
  347 1.920 1.634  2.206 1.000 1.00000 1.920 1.000      0.323  23.000
  348 1.920 1.634  2.206 1.000 1.00000 1.920 1.000      0.638  23.000
  349 1.930 1.643  2.217 1.000 1.00000 1.930 1.000      4.169  23.000
  350 1.920 1.634  2.206 1.000 1.00000 1.920 1.000      1.018  23.000
  351 1.960 1.670  2.250 1.000 1.00000 1.960 1.000     10.273  23.000
  352 1.920 1.634  2.206 1.000 1.00000 1.920 1.000      1.116  23.000
  353 1.930 1.643  2.217 1.000 1.00000 1.930 1.000      3.347  23.000
  354 1.920 1.634  2.206 1.000 1.00000 1.920 1.000      0.562  23.000
  355 1.920 1.634  2.206 1.000 1.00000 1.920 1.000      2.026  23.000
  356 1.930 1.643  2.217 1.000 1.00000 1.930 1.000      4.049  23.000
  357 1.930 1.643  2.217 1.000 1.00000 1.930 1.000      4.478  23.000
  358 1.920 1.634  2.206 1.000 1.00000 1.920 1.000      0.323  23.000
  359 1.920 1.634  2.206 1.000 1.00000 1.920 1.000      1.610  23.000
  360 1.960 1.670  2.250 1.000 1.00000 1.960 1.000     13.696  23.000
  361 1.920 1.634  2.206 1.000 1.00000 1.920 1.000      1.018  23.000
  362 1.950 1.661  2.239 1.000 1.00000 1.960 1.000      7.432  23.000
  363 1.930 1.643  2.217 1.000 1.00000 1.930 1.000      2.311  23.000
  364 1.930 1.643  2.217 1.000 1.00000 1.930 1.000      2.374  23.000
  365 1.960 1.670  2.250 1.000 1.00000 1.960 1.000      7.601  23.000
  366 1.920 1.634  2.206 1.000 1.00000 1.920 1.000      0.883  23.000
  367 1.960 1.670  2.250 1.000 1.00000 1.960 1.000     12.326  23.000
  368 1.930 1.643  2.217 1.000 1.00000 1.930 1.000      2.727  23.000
  369 1.920 1.634  2.206 1.000 1.00000 1.920 1.000      0.323  23.000
  370 1.960 1.670  2.250 1.000 1.00000 1.960 1.000     11.088  23.000
  371 1.960 1.670  2.250 1.000 1.00000 1.960 1.000      7.664  23.000
  372 1.920 1.634  2.206 1.000 1.00000 1.920 1.000      0.367  23.000
  373 1.930 1.643  2.217 1.000 1.00000 1.930 1.000      5.172  23.000
  374 1.930 1.643  2.217 1.000 1.00000 1.930 1.000      4.934  23.000
  375 1.920 1.634  2.206 1.000 1.00000 1.920 1.000      0.901  23.000
  376 1.920 1.634  2.206 1.000 1.00000 1.920 1.000      1.059  23.000
  377 1.960 1.670  2.250 1.000 1.00000 1.960 1.000     22.982  23.000
  378 1.960 1.670  2.250 1.000 1.00000 1.960 1.000      8.499  23.000
  379 1.960 1.670  2.250 1.000 1.00000 1.960 1.000     12.252  23.000
  380 1.930 1.643  2.217 1.000 1.00000 1.930 1.000      2.613  23.000
  381 1.930 1.643  2.217 1.000 1.00000 1.930 1.000      2.311  23.000
  382 1.960 1.670  2.250 1.000 1.00000 1.960 1.000     29.509  23.000
  383 1.920 1.634  2.206 1.000 1.00000 1.920 1.000      0.348  23.000
  384 1.960 1.670  2.250 1.000 1.00000 1.960 1.000      9.482  23.000
  385 1.960 1.670  2.250 1.000 1.00000 1.960 1.000      8.850  23.000
  386 1.920 1.634  2.206 1.000 1.00000 1.920 1.000      0.328  23.000
  387 1.920 1.634  2.206 1.000 1.00000 1.920 1.000      1.045  23.000
  388 1.930 1.643  2.217 1.000 1.00000 1.930 1.000      2.989  23.000
  389 1.930 1.643  2.217 1.000 1.00000 1.930 1.000      5.206  23.000
  390 1.920 1.634  2.206 1.000 1.00000 1.920 1.000      0.649  23.000
  391 1.930 1.643  2.217 1.000 1.00000 1.930 1.000      3.990  23.000
  392 1.960 1.670  2.250 1.000 1.00000 1.960 1.000     25.566  23.000
  393 1.960 1.670  2.250 1.000 1.00000 1.960 1.000     89.321  23.000
  394 1.930 1.643  2.217 1.000 1.00000 1.930 1.000      6.150  23.000
  395 1.960 1.670  2.250 1.000 1.00000 1.960 1.000     43.329  23.000
  396 1.920 1.634  2.206 1.000 1.00000 1.920 1.000      0.613  23.000
  397 1.920 1.634  2.206 1.000 1.00000 1.920 1.000      0.493  23.000
  398 1.920 1.634  2.206 1.000 1.00000 1.920 1.000      1.629  23.000
  399 1.960 1.670  2.250 1.000 1.00000 1.960 1.000     11.583  23.000
  400 1.960 1.670  2.250 1.000 1.00000 1.960 1.000     24.659  23.000
  401 1.920 1.634  2.206 1.000 1.00000 1.920 1.000      0.602  23.000
  402 1.960 1.670  2.250 1.000 1.00000 1.960 1.000      7.686  23.000
  403 1.930 1.643  2.217 1.000 1.00000 1.930 1.000      3.562  23.000
  404 1.920 1.634  2.206 1.000 1.00000 1.920 1.000      1.365  23.000
  405 1.960 1.670  2.250 1.000 1.00000 1.960 1.000      8.254  23.000
  406 1.950 1.661  2.239 1.000 1.00000 1.960 1.000      7.463  23.000
  407 1.920 1.634  2.206 1.000 1.00000 1.920 1.000      1.629  23.000
  408 1.960 1.670  2.250 1.000 1.00000 1.960 1.000      7.992  23.000
  409 1.930 1.643  2.217 1.000 1.00000 1.930 1.000      6.816  23.000
  410 1.960 1.670  2.250 1.000 1.00000 1.960 1.000      7.515  23.000
  411 1.920 1.634  2.206 1.000 1.00000 1.920 1.000      1.861  23.000
  412 1.930 1.643  2.217 1.000 1.00000 1.930 1.000      2.332  23.000
  413 1.920 1.634  2.206 1.000 1.00000 1.920 1.000      1.316  23.000
  414 1.960 1.670  2.250 1.000 1.00000 1.960 1.000      7.543  23.000
  415 1.920 1.634  2.206 1.000 1.00000 1.920 1.000      0.486  23.000
  416 1.920 1.634  2.206 1.000 1.00000 1.920 1.000      0.317  23.000
  417 1.960 1.670  2.250 1.000 1.00000 1.960 1.000      8.871  23.000
  418 1.920 1.634  2.206 1.000 1.00000 1.920 1.000      0.363  23.000
  419 1.960 1.670  2.250 1.000 1.00000 1.960 1.000      8.748  23.000
  420 1.960 1.670  2.250 1.000 1.00000 1.960 1.000      7.664  23.000
  421 1.960 1.670  2.250 1.000 1.00000 1.960 1.000      7.543  23.000
  422 1.920 1.634  2.206 1.000 1.00000 1.920 1.000      0.312  23.000
  423 1.920 1.634  2.206 1.000 1.00000 1.920 1.000      0.311  23.000
  424 1.930 1.643  2.217 1.000 1.00000 1.930 1.000      2.750  23.000
  425 1.930 1.643  2.217 1.000 1.00000 1.930 1.000      6.074  23.000
  426 1.920 1.634  2.206 1.000 1.00000 1.920 1.000      0.371  23.000
  427 1.960 1.670  2.250 1.000 1.00000 1.960 1.000     13.490  23.000
  428 1.930 1.643  2.217 1.000 1.00000 1.930 1.000      4.801  23.000
  429 1.960 1.670  2.250 1.000 1.00000 1.960 1.000      8.934  23.000
  430 1.930 1.643  2.217 1.000 1.00000 1.930 1.000      4.834  23.000
  431 1.920 1.634  2.206 1.000 1.00000 1.920 1.000      0.736  23.000
  432 1.960 1.670  2.250 1.000 1.00000 1.960 1.000     20.122  23.000
  433 1.920 1.634  2.206 1.000 1.00000 1.920 1.000      0.864  23.000
  434 1.960 1.670  2.250 1.000 1.00000 1.960 1.000     49.609  23.000
  435 1.920 1.634  2.206 1.000 1.00000 1.920 1.000      0.304  23.000
  436 1.930 1.643  2.217 1.000 1.00000 1.930 1.000      6.342  23.000
  437 1.920 1.634  2.206 1.000 1.00000 1.920 1.000      0.473  23.000
  438 1.920 1.634  2.206 1.000 1.00000 1.920 1.000      1.398  23.000
  439 1.960 1.670  2.250 1.000 1.00000 1.960 1.000     12.036  23.000
  440 1.930 1.643  2.217 1.000 1.00000 1.930 1.000      5.522  23.000
  441 1.930 1.643  2.217 1.000 1.00000 1.930 1.000      6.735  23.000
  442 1.920 1.634  2.206 1.000 1.00000 1.920 1.000      0.379  23.000
  443 1.920 1.634  2.206 1.000 1.00000 1.920 1.000      2.090  23.000
  444 1.920 1.634  2.206 1.000 1.00000 1.920 1.000      0.304  23.000
  445 1.940 1.652  2.228 1.000 1.00000 1.930 1.000      7.309  23.000
  446 1.960 1.670  2.250 1.000 1.00000 1.960 1.000      9.064  23.000
  447 1.920 1.634  2.206 1.000 1.00000 1.920 1.000      0.939  23.000
  448 1.930 1.643  2.217 1.000 1.00000 1.930 1.000      4.478  23.000
  449 1.960 1.670  2.250 1.000 1.00000 1.960 1.000      9.656  23.000
  450 1.960 1.670  2.250 1.000 1.00000 1.960 1.000      7.632  23.000
  451 1.920 1.634  2.206 1.000 1.00000 1.920 1.000      0.306  23.000
  452 1.920 1.634  2.206 1.000 1.00000 1.920 1.000      0.978  23.000
  453 1.960 1.670  2.250 1.000 1.00000 1.960 1.000      8.305  23.000
  454 1.930 1.643  2.217 1.000 1.00000 1.930 1.000      2.332  23.000
  455 1.930 1.643  2.217 1.000 1.00000 1.930 1.000      5.451  23.000
  456 1.960 1.670  2.250 1.000 1.00000 1.960 1.000     12.289  23.000
  457 1.920 1.634  2.206 1.000 1.00000 1.920 1.000      2.026  23.000
  458 1.960 1.670  2.250 1.000 1.00000 1.960 1.000      7.922  23.000
  459 1.960 1.670  2.250 1.000 1.00000 1.960 1.000     10.106  23.000
  460 1.960 1.670  2.250 1.000 1.00000 1.960 1.000      7.909  23.000
  461 1.920 1.634  2.206 1.000 1.00000 1.920 1.000      1.116  23.000
  462 1.960 1.670  2.250 1.000 1.00000 1.960 1.000     19.887  23.000
  463 1.920 1.634  2.206 1.000 1.00000 1.920 1.000      2.005  23.000
  464 1.960 1.670  2.250 1.000 1.00000 1.960 1.000      9.942  23.000
  465 1.930 1.643  2.217 1.000 1.00000 1.930 1.000      3.562  23.000
  466 1.930 1.643  2.217 1.000 1.00000 1.930 1.000      3.673  23.000
  467 1.920 1.634  2.206 1.000 1.00000 1.920 1.000      0.312  23.000
  468 1.920 1.634  2.206 1.000 1.00000 1.920 1.000      0.442  23.000
  469 1.920 1.634  2.206 1.000 1.00000 1.920 1.000      2.026  23.000
  470 1.920 1.634  2.206 1.000 1.00000 1.920 1.000      0.345  23.000
  471 1.930 1.643  2.217 1.000 1.00000 1.930 1.000      2.636  23.000
  472 1.960 1.670  2.250 1.000 1.00000 1.960 1.000     56.889  23.000
  473 1.920 1.634  2.206 1.000 1.00000 1.920 1.000      0.448  23.000
  474 1.960 1.670  2.250 1.000 1.00000 1.960 1.000      9.020  23.000
  475 1.960 1.670  2.250 1.000 1.00000 1.960 1.000      9.942  23.000
  476 1.950 1.661  2.239 1.000 1.00000 1.960 1.000      7.472  23.000
  477 1.920 1.634  2.206 1.000 1.00000 1.920 1.000      0.315  23.000
  478 1.960 1.670  2.250 1.000 1.00000 1.960 1.000      8.462  23.000
  479 1.930 1.643  2.217 1.000 1.00000 1.930 1.000      2.353  23.000
  480 1.920 1.634  2.206 1.000 1.00000 1.920 1.000      0.308  23.000
  481 1.920 1.634  2.206 1.000 1.00000 1.920 1.000      0.315  23.000
  482 1.960 1.670  2.250 1.000 1.00000 1.960 1.000      8.373  23.000
  483 1.920 1.634  2.206 1.000 1.00000 1.920 1.000      1.573  23.000
  484 1.960 1.670  2.250 1.000 1.00000 1.960 1.000      9.131  23.000
  485 1.930 1.643  2.217 1.000 1.00000 1.930 1.000      3.730  23.000
  486 1.930 1.643  2.217 1.000 1.00000 1.930 1.000      4.049  23.000
  487 1.930 1.643  2.217 1.000 1.00000 1.930 1.000      2.613  23.000
  488 1.960 1.670  2.250 1.000 1.00000 1.960 1.000      8.913  23.000
  489 1.960 1.670  2.250 1.000 1.00000 1.960 1.000      9.244  23.000
  490 1.930 1.643  2.217 1.000 1.00000 1.930 1.000      5.887  23.000
  491 1.960 1.670  2.250 1.000 1.00000 1.960 1.000      7.843  23.000
  492 1.960 1.670  2.250 1.000 1.00000 1.960 1.000     13.821  23.000
  493 1.930 1.643  2.217 1.000 1.00000 1.930 1.000      5.103  23.000
  494 1.960 1.670  2.250 1.000 1.00000 1.960 1.000      8.126  23.000
  495 1.920 1.634  2.206 1.000 1.00000 1.920 1.000      0.553  23.000
  496 1.920 1.634  2.206 1.000 1.00000 1.920 1.000      1.881  23.000
  497 1.960 1.670  2.250 1.000 1.00000 1.960 1.000      8.480  23.000
  498 1.950 1.661  2.239 1.000 1.00000 1.960 1.000      7.439  23.000
  499 1.960 1.670  2.250 1.000 1.00000 1.960 1.000      7.506  23.000
  500 1.930 1.643  2.217 1.000 1.00000 1.930 1.000      7.226  23.000
  501 1.960 1.670  2.250 1.000 1.00000 1.960 1.000      7.895  23.000
  502 1.920 1.634  2.206 1.000 1.00000 1.920 1.000      1.116  23.000
  503 1.960 1.670  2.250 1.000 1.00000 1.960 1.000     12.071  23.000
  504 1.930 1.643  2.217 1.000 1.00000 1.930 1.000      6.897  23.000
  505 1.930 1.643  2.217 1.000 1.00000 1.930 1.000      2.481  23.000
  506 1.920 1.634  2.206 1.000 1.00000 1.920 1.000      0.345  23.000
  507 1.930 1.643  2.217 1.000 1.00000 1.930 1.000      6.537  23.000
  508 1.920 1.634  2.206 1.000 1.00000 1.920 1.000      0.398  23.000
  509 1.930 1.643  2.217 1.000 1.00000 1.930 1.000      2.395  23.000
  510 1.930 1.643  2.217 1.000 1.00000 1.930 1.000      2.230  23.000
  511 1.960 1.670  2.250 1.000 1.00000 1.960 1.000     12.036  23.000
  512 1.920 1.634  2.206 1.000 1.00000 1.920 1.000      1.723  23.000
  513 1.960 1.670  2.250 1.000 1.00000 1.960 1.000      8.356  23.000
  514 1.920 1.634  2.206 1.000 1.00000 1.920 1.000      0.500  23.000
  515 1.960 1.670  2.250 1.000 1.00000 1.960 1.000      8.913  23.000
  516 1.960 1.670  2.250 1.000 1.00000 1.960 1.000      9.707  23.000
  517 1.960 1.670  2.250 1.000 1.00000 1.960 1.000      8.339  23.000
  518 1.920 1.634  2.206 1.000 1.00000 1.920 1.000      0.829  23.000
  519 1.930 1.643  2.217 1.000 1.00000 1.930 1.000      4.447  23.000
  520 1.920 1.634  2.206 1.000 1.00000 1.920 1.000      2.005  23.000
  521 1.930 1.643  2.217 1.000 1.00000 1.930 1.000      6.380  23.000
  522 1.930 1.643  2.217 1.000 1.00000 1.930 1.000      4.900  23.000
  523 1.960 1.670  2.250 1.000 1.00000 1.960 1.000     13.779  23.000
  524 1.920 1.634  2.206 1.000 1.00000 1.920 1.000      0.562  23.000
  525 1.960 1.670  2.250 1.000 1.00000 1.960 1.000      8.051  23.000
  526 1.920 1.634  2.206 1.000 1.00000 1.920 1.000      0.363  23.000
  527 1.950 1.661  2.239 1.000 1.00000 1.960 1.000      7.439  23.000
  528 1.960 1.670  2.250 1.000 1.00000 1.960 1.000      8.871  23.000
  529 1.920 1.634  2.206 1.000 1.00000 1.920 1.000      0.585  23.000
  530 1.930 1.643  2.217 1.000 1.00000 1.930 1.000      5.206  23.000
  531 1.960 1.670  2.250 1.000 1.00000 1.960 1.000     26.064  23.000
  532 1.930 1.643  2.217 1.000 1.00000 1.930 1.000      5.594  23.000
  533 1.920 1.634  2.206 1.000 1.00000 1.920 1.000      0.493  23.000
  534 1.950 1.661  2.239 1.000 1.00000 1.960 1.000      7.455  23.000
  535 1.930 1.643  2.217 1.000 1.00000 1.930 1.000      2.395  23.000
  536 1.920 1.634  2.206 1.000 1.00000 1.920 1.000      0.306  23.000
  537 1.920 1.634  2.206 1.000 1.00000 1.920 1.000      0.339  23.000
  538 1.920 1.634  2.206 1.000 1.00000 1.920 1.000      1.467  23.000
  539 1.930 1.643  2.217 1.000 1.00000 1.930 1.000      6.226  23.000
  540 1.920 1.634  2.206 1.000 1.00000 1.920 1.000      0.342  23.000
  541 1.930 1.643  2.217 1.000 1.00000 1.930 1.000      2.353  23.000
  542 1.960 1.670  2.250 1.000 1.00000 1.960 1.000     15.796  23.000
  543 1.920 1.634  2.206 1.000 1.00000 1.920 1.000      0.345  23.000
  544 1.960 1.670  2.250 1.000 1.00000 1.960 1.000      7.664  23.000
  545 1.960 1.670  2.250 1.000 1.00000 1.960 1.000      7.817  23.000
  546 1.920 1.634  2.206 1.000 1.00000 1.920 1.000      1.666  23.000
  547 1.960 1.670  2.250 1.000 1.00000 1.960 1.000      8.322  23.000
  548 1.920 1.634  2.206 1.000 1.00000 1.920 1.000      1.398  23.000
  549 1.930 1.643  2.217 1.000 1.00000 1.930 1.000      5.887  23.000
  550 1.930 1.643  2.217 1.000 1.00000 1.930 1.000      2.502  23.000
  551 1.920 1.634  2.206 1.000 1.00000 1.920 1.000      1.984  23.000
  552 1.930 1.643  2.217 1.000 1.00000 1.930 1.000      6.419  23.000
  553 1.920 1.634  2.206 1.000 1.00000 1.920 1.000      0.312  23.000
  554 1.930 1.643  2.217 1.000 1.00000 1.930 1.000      3.508  23.000
  555 1.930 1.643  2.217 1.000 1.00000 1.930 1.000      3.373  23.000
  556 1.960 1.670  2.250 1.000 1.00000 1.960 1.000      7.653  23.000
  557 1.920 1.634  2.206 1.000 1.00000 1.920 1.000      0.501  23.000
  558 1.920 1.634  2.206 1.000 1.00000 1.920 1.000      1.861  23.000
  559 1.930 1.643  2.217 1.000 1.00000 1.930 1.000      4.510  23.000
  560 1.920 1.634  2.206 1.000 1.00000 1.920 1.000      0.570  23.000
  561 1.960 1.670  2.250 1.000 1.00000 1.960 1.000     12.474  23.000
  562 1.930 1.643  2.217 1.000 1.00000 1.930 1.000      2.210  23.000
  563 1.930 1.643  2.217 1.000 1.00000 1.930 1.000      6.303  23.000
  564 1.920 1.634  2.206 1.000 1.00000 1.920 1.000      1.484  23.000
  565 1.960 1.670  2.250 1.000 1.00000 1.960 1.000      8.288  23.000
  566 1.920 1.634  2.206 1.000 1.00000 1.920 1.000      0.812  23.000
  567 1.960 1.670  2.250 1.000 1.00000 1.960 1.000     11.720  23.000
  568 1.920 1.634  2.206 1.000 1.00000 1.920 1.000      0.304  23.000
  569 1.960 1.670  2.250 1.000 1.00000 1.960 1.000      7.591  23.000
  570 1.960 1.670  2.250 1.000 1.00000 1.960 1.000      8.339  23.000
  571 1.920 1.634  2.206 1.000 1.00000 1.920 1.000      1.087  23.000
  572 1.930 1.643  2.217 1.000 1.00000 1.930 1.000      2.774  23.000
  573 1.920 1.634  2.206 1.000 1.00000 1.920 1.000      0.311  23.000
  574 1.920 1.634  2.206 1.000 1.00000 1.920 1.000      0.726  23.000
  575 1.950 1.661  2.239 1.000 1.00000 1.960 1.000      7.497  23.000
  576 1.920 1.634  2.206 1.000 1.00000 1.920 1.000      0.304  23.000
  577 1.920 1.634  2.206 1.000 1.00000 1.920 1.000      0.308  23.000
  578 1.920 1.634  2.206 1.000 1.00000 1.920 1.000      0.454  23.000
  579 1.930 1.643  2.217 1.000 1.00000 1.930 1.000      6.303  23.000
  580 1.960 1.670  2.250 1.000 1.00000 1.960 1.000     10.133  23.000
  581 1.920 1.634  2.206 1.000 1.00000 1.920 1.000      0.448  23.000
  582 1.920 1.634  2.206 1.000 1.00000 1.920 1.000      0.493  23.000
  583 1.920 1.634  2.206 1.000 1.00000 1.920 1.000      2.112  23.000
  584 1.920 1.634  2.206 1.000 1.00000 1.920 1.000      1.762  23.000
  585 1.930 1.643  2.217 1.000 1.00000 1.930 1.000      4.768  23.000
  586 1.930 1.643  2.217 1.000 1.00000 1.930 1.000      5.739  23.000
  587 1.950 1.661  2.239 1.000 1.00000 1.960 1.000      7.497  23.000
  588 1.920 1.634  2.206 1.000 1.00000 1.920 1.000      0.304  23.000
  589 1.930 1.643  2.217 1.000 1.00000 1.930 1.000      5.667  23.000
  590 1.920 1.634  2.206 1.000 1.00000 1.920 1.000      0.719  23.000
  591 1.920 1.634  2.206 1.000 1.00000 1.920 1.000      0.424  23.000
  592 1.920 1.634  2.206 1.000 1.00000 1.920 1.000      0.325  23.000
  593 1.920 1.634  2.206 1.000 1.00000 1.920 1.000      0.688  23.000
  594 1.930 1.643  2.217 1.000 1.00000 1.930 1.000      5.667  23.000
  595 1.920 1.634  2.206 1.000 1.00000 1.920 1.000      0.901  23.000
  596 1.920 1.634  2.206 1.000 1.00000 1.920 1.000      0.408  23.000
  597 1.920 1.634  2.206 1.000 1.00000 1.920 1.000      0.460  23.000
  598 1.960 1.670  2.250 1.000 1.00000 1.960 1.000      8.689  23.000
  599 1.960 1.670  2.250 1.000 1.00000 1.960 1.000     15.558  23.000
  600 1.930 1.643  2.217 1.000 1.00000 1.930 1.000      5.522  23.000
  601 1.920 1.634  2.206 1.000 1.00000 1.920 1.000      0.794  23.000
  602 1.920 1.634  2.206 1.000 1.00000 1.920 1.000      0.375  23.000
  603 1.960 1.670  2.250 1.000 1.00000 1.960 1.000     25.779  23.000
  604 1.960 1.670  2.250 1.000 1.00000 1.960 1.000      9.457  23.000
  605 1.920 1.634  2.206 1.000 1.00000 1.920 1.000      0.750  23.000
  606 1.930 1.643  2.217 1.000 1.00000 1.930 1.000      4.019  23.000
  607 1.960 1.670  2.250 1.000 1.00000 1.960 1.000     10.624  23.000
  608 1.930 1.643  2.217 1.000 1.00000 1.930 1.000      3.400  23.000
  609 1.930 1.643  2.217 1.000 1.00000 1.930 1.000      2.591  23.000
  610 1.930 1.643  2.217 1.000 1.00000 1.930 1.000      4.606  23.000
  611 1.930 1.643  2.217 1.000 1.00000 1.930 1.000      4.478  23.000
  612 1.960 1.670  2.250 1.000 1.00000 1.960 1.000      7.611  23.000
  613 1.920 1.634  2.206 1.000 1.00000 1.920 1.000      0.345  23.000
  614 1.960 1.670  2.250 1.000 1.00000 1.960 1.000     10.475  23.000
  615 1.920 1.634  2.206 1.000 1.00000 1.920 1.000      1.236  23.000
  616 1.930 1.643  2.217 1.000 1.00000 1.930 1.000      5.001  23.000
  617 1.930 1.643  2.217 1.000 1.00000 1.930 1.000      2.438  23.000
  618 1.960 1.670  2.250 1.000 1.00000 1.960 1.000      8.689  23.000
  619 1.920 1.634  2.206 1.000 1.00000 1.920 1.000      1.102  23.000
  620 1.930 1.643  2.217 1.000 1.00000 1.930 1.000      2.844  23.000
  621 1.920 1.634  2.206 1.000 1.00000 1.920 1.000      0.379  23.000
  622 1.960 1.670  2.250 1.000 1.00000 1.960 1.000     10.078  23.000
  623 1.930 1.643  2.217 1.000 1.00000 1.930 1.000      2.151  23.000
  624 1.960 1.670  2.250 1.000 1.00000 1.960 1.000      9.086  23.000
  625 1.960 1.670  2.250 1.000 1.00000 1.960 1.000     32.496  23.000
  626 1.920 1.634  2.206 1.000 1.00000 1.920 1.000      1.135  23.000
  627 1.930 1.643  2.217 1.000 1.00000 1.930 1.000      2.270  23.000
  628 1.960 1.670  2.250 1.000 1.00000 1.960 1.000      7.721  23.000
  629 1.960 1.670  2.250 1.000 1.00000 1.960 1.000     26.497  23.000
  630 1.960 1.670  2.250 1.000 1.00000 1.960 1.000      7.611  23.000
  631 1.930 1.643  2.217 1.000 1.00000 1.930 1.000      4.447  23.000
  632 1.950 1.661  2.239 1.000 1.00000 1.960 1.000      7.455  23.000
  633 1.960 1.670  2.250 1.000 1.00000 1.960 1.000     22.081  23.000
  634 1.920 1.634  2.206 1.000 1.00000 1.920 1.000      0.323  23.000
  635 1.930 1.643  2.217 1.000 1.00000 1.930 1.000      2.821  23.000
  636 1.920 1.634  2.206 1.000 1.00000 1.920 1.000      1.723  23.000
  637 1.960 1.670  2.250 1.000 1.00000 1.960 1.000     21.391  23.000
  638 1.920 1.634  2.206 1.000 1.00000 1.920 1.000      0.529  23.000
  639 1.930 1.643  2.217 1.000 1.00000 1.930 1.000      7.143  23.000
  640 1.930 1.643  2.217 1.000 1.00000 1.930 1.000      4.322  23.000
  641 1.930 1.643  2.217 1.000 1.00000 1.930 1.000      5.961  23.000
  642 1.920 1.634  2.206 1.000 1.00000 1.920 1.000      0.629  23.000
  643 1.920 1.634  2.206 1.000 1.00000 1.920 1.000      0.888  23.000
  644 1.960 1.670  2.250 1.000 1.00000 1.960 1.000     12.180  23.000
  645 1.920 1.634  2.206 1.000 1.00000 1.920 1.000      0.726  23.000
  646 1.920 1.634  2.206 1.000 1.00000 1.920 1.000      1.045  23.000
  647 1.920 1.634  2.206 1.000 1.00000 1.920 1.000      0.367  23.000
  648 1.920 1.634  2.206 1.000 1.00000 1.920 1.000      0.348  23.000
  649 1.920 1.634  2.206 1.000 1.00000 1.920 1.000      0.325  23.000
  650 1.960 1.670  2.250 1.000 1.00000 1.960 1.000      7.843  23.000
  651 1.960 1.670  2.250 1.000 1.00000 1.960 1.000     12.362  23.000
  652 1.930 1.643  2.217 1.000 1.00000 1.930 1.000      3.347  23.000
  653 1.960 1.670  2.250 1.000 1.00000 1.960 1.000     43.934  23.000
  654 1.920 1.634  2.206 1.000 1.00000 1.920 1.000      0.901  23.000
  655 1.920 1.634  2.206 1.000 1.00000 1.920 1.000      0.508  23.000
  656 1.940 1.652  2.228 1.000 1.00000 1.960 1.000      7.409  23.000
  657 1.930 1.643  2.217 1.000 1.00000 1.930 1.000      3.089  23.000
  658 1.930 1.643  2.217 1.000 1.00000 1.930 1.000      5.558  23.000
  659 1.930 1.643  2.217 1.000 1.00000 1.930 1.000      2.524  23.000
  660 1.920 1.634  2.206 1.000 1.00000 1.920 1.000      0.367  23.000
  661 1.960 1.670  2.250 1.000 1.00000 1.960 1.000     15.558  23.000
  662 1.920 1.634  2.206 1.000 1.00000 1.920 1.000      0.852  23.000
  663 1.960 1.670  2.250 1.000 1.00000 1.960 1.000      8.708  23.000
  664 1.920 1.634  2.206 1.000 1.00000 1.920 1.000      0.311  23.000
  665 1.960 1.670  2.250 1.000 1.00000 1.960 1.000      7.591  23.000
  666 1.960 1.670  2.250 1.000 1.00000 1.960 1.000     14.333  23.000
  667 1.960 1.670  2.250 1.000 1.00000 1.960 1.000      8.271  23.000
  668 1.920 1.634  2.206 1.000 1.00000 1.920 1.000      0.345  23.000
  669 1.960 1.670  2.250 1.000 1.00000 1.960 1.000     10.359  23.000
  670 1.960 1.670  2.250 1.000 1.00000 1.960 1.000      8.913  23.000
  671 1.930 1.643  2.217 1.000 1.00000 1.930 1.000      7.101  23.000
  672 1.930 1.643  2.217 1.000 1.00000 1.930 1.000      6.150  23.000
  673 1.920 1.634  2.206 1.000 1.00000 1.920 1.000      0.306  23.000
  674 1.920 1.634  2.206 1.000 1.00000 1.920 1.000      0.901  23.000
  675 1.930 1.643  2.217 1.000 1.00000 1.930 1.000      6.264  23.000
  676 1.920 1.634  2.206 1.000 1.00000 1.920 1.000      0.336  23.000
  677 1.960 1.670  2.250 1.000 1.00000 1.960 1.000     10.189  23.000
  678 1.920 1.634  2.206 1.000 1.00000 1.920 1.000      1.537  23.000
  679 1.920 1.634  2.206 1.000 1.00000 1.920 1.000      0.403  23.000
  680 1.930 1.643  2.217 1.000 1.00000 1.930 1.000      3.014  23.000
  681 1.920 1.634  2.206 1.000 1.00000 1.920 1.000      1.942  23.000
  682 1.920 1.634  2.206 1.000 1.00000 1.920 1.000      0.436  23.000
  683 1.920 1.634  2.206 1.000 1.00000 1.920 1.000      0.315  23.000
  684 1.930 1.643  2.217 1.000 1.00000 1.930 1.000      7.101  23.000
  685 1.940 1.652  2.228 1.000 1.00000 1.930 1.000      7.268  23.000
  686 1.930 1.643  2.217 1.000 1.00000 1.930 1.000      4.199  23.000
  687 1.950 1.661  2.239 1.000 1.00000 1.960 1.000      7.455  23.000
  688 1.920 1.634  2.206 1.000 1.00000 1.920 1.000      1.963  23.000
  689 1.920 1.634  2.206 1.000 1.00000 1.920 1.000      0.321  23.000
  690 1.930 1.643  2.217 1.000 1.00000 1.930 1.000      3.617  23.000
  691 1.930 1.643  2.217 1.000 1.00000 1.930 1.000      2.868  23.000
  692 1.930 1.643  2.217 1.000 1.00000 1.930 1.000      3.294  23.000
  693 1.920 1.634  2.206 1.000 1.00000 1.920 1.000      1.032  23.000
  694 1.920 1.634  2.206 1.000 1.00000 1.920 1.000      1.018  23.000
  695 1.930 1.643  2.217 1.000 1.00000 1.930 1.000      2.892  23.000
  696 1.930 1.643  2.217 1.000 1.00000 1.930 1.000      2.502  23.000
  697 1.960 1.670  2.250 1.000 1.00000 1.960 1.000      7.686  23.000
  698 1.920 1.634  2.206 1.000 1.00000 1.920 1.000      1.573  23.000
  699 1.960 1.670  2.250 1.000 1.00000 1.960 1.000     12.071  23.000
  700 1.960 1.670  2.250 1.000 1.00000 1.960 1.000      8.408  23.000
  701 1.930 1.643  2.217 1.000 1.00000 1.930 1.000      4.322  23.000
  702 1.930 1.643  2.217 1.000 1.00000 1.930 1.000      3.426  23.000
  703 1.960 1.670  2.250 1.000 1.00000 1.960 1.000      7.543  23.000
  704 1.930 1.643  2.217 1.000 1.00000 1.930 1.000      3.645  23.000
  705 1.920 1.634  2.206 1.000 1.00000 1.920 1.000      1.059  23.000
  706 1.960 1.670  2.250 1.000 1.00000 1.960 1.000      7.601  23.000
  707 1.920 1.634  2.206 1.000 1.00000 1.920 1.000      0.757  23.000
  708 1.930 1.643  2.217 1.000 1.00000 1.930 1.000      6.264  23.000
  709 1.960 1.670  2.250 1.000 1.00000 1.960 1.000      8.517  23.000
  710 1.930 1.643  2.217 1.000 1.00000 1.930 1.000      6.074  23.000
  711 1.920 1.634  2.206 1.000 1.00000 1.920 1.000      0.448  23.000
  712 1.930 1.643  2.217 1.000 1.00000 1.930 1.000      2.332  23.000
  713 1.930 1.643  2.217 1.000 1.00000 1.930 1.000      4.735  23.000
  714 1.930 1.643  2.217 1.000 1.00000 1.930 1.000      5.275  23.000
  715 1.920 1.634  2.206 1.000 1.00000 1.920 1.000      0.323  23.000
  716 1.920 1.634  2.206 1.000 1.00000 1.920 1.000      2.112  23.000
  717 1.920 1.634  2.206 1.000 1.00000 1.920 1.000      0.363  23.000
  718 1.960 1.670  2.250 1.000 1.00000 1.960 1.000     16.479  23.000
  719 1.960 1.670  2.250 1.000 1.00000 1.960 1.000     15.093  23.000
  720 1.920 1.634  2.206 1.000 1.00000 1.920 1.000      1.365  23.000
  721 1.960 1.670  2.250 1.000 1.00000 1.960 1.000     11.685  23.000
  722 1.930 1.643  2.217 1.000 1.00000 1.930 1.000      3.815  23.000
  723 1.920 1.634  2.206 1.000 1.00000 1.920 1.000      0.384  23.000
  724 1.930 1.643  2.217 1.000 1.00000 1.930 1.000      2.844  23.000
  725 1.920 1.634  2.206 1.000 1.00000 1.920 1.000      0.424  23.000
  726 1.930 1.643  2.217 1.000 1.00000 1.930 1.000      3.701  23.000
  727 1.920 1.634  2.206 1.000 1.00000 1.920 1.000      0.313  23.000
  728 1.920 1.634  2.206 1.000 1.00000 1.920 1.000      0.342  23.000
  729 1.930 1.643  2.217 1.000 1.00000 1.930 1.000      6.537  23.000
  730 1.960 1.670  2.250 1.000 1.00000 1.960 1.000     30.377  23.000
  731 1.920 1.634  2.206 1.000 1.00000 1.920 1.000      0.538  23.000
  732 1.960 1.670  2.250 1.000 1.00000 1.960 1.000      8.081  23.000
  733 1.920 1.634  2.206 1.000 1.00000 1.920 1.000      0.659  23.000
  734 1.930 1.643  2.217 1.000 1.00000 1.930 1.000      4.670  23.000
  735 1.930 1.643  2.217 1.000 1.00000 1.930 1.000      2.868  23.000
  736 1.960 1.670  2.250 1.000 1.00000 1.960 1.000      8.554  23.000
  737 1.930 1.643  2.217 1.000 1.00000 1.930 1.000      3.590  23.000
  738 1.930 1.643  2.217 1.000 1.00000 1.930 1.000      5.103  23.000
  739 1.930 1.643  2.217 1.000 1.00000 1.930 1.000      3.400  23.000
  740 1.920 1.634  2.206 1.000 1.00000 1.920 1.000      0.622  23.000
  741 1.930 1.643  2.217 1.000 1.00000 1.930 1.000      4.606  23.000
  742 1.960 1.670  2.250 1.000 1.00000 1.960 1.000      8.356  23.000
  743 1.930 1.643  2.217 1.000 1.00000 1.930 1.000      5.069  23.000
  744 1.930 1.643  2.217 1.000 1.00000 1.930 1.000      5.924  23.000
  745 1.960 1.670  2.250 1.000 1.00000 1.960 1.000     12.252  23.000
  746 1.960 1.670  2.250 1.000 1.00000 1.960 1.000      9.863  23.000
  747 1.960 1.670  2.250 1.000 1.00000 1.960 1.000      8.173  23.000
  748 1.930 1.643  2.217 1.000 1.00000 1.930 1.000      2.291  23.000
  749 1.920 1.634  2.206 1.000 1.00000 1.920 1.000      0.307  23.000
  750 1.920 1.634  2.206 1.000 1.00000 1.920 1.000      1.781  23.000
  751 1.960 1.670  2.250 1.000 1.00000 1.960 1.000      9.942  23.000
  752 1.930 1.643  2.217 1.000 1.00000 1.930 1.000      6.776  23.000
  753 1.930 1.643  2.217 1.000 1.00000 1.930 1.000      2.190  23.000
  754 1.960 1.670  2.250 1.000 1.00000 1.960 1.000     10.806  23.000
  755 1.920 1.634  2.206 1.000 1.00000 1.920 1.000      0.348  23.000
  756 1.930 1.643  2.217 1.000 1.00000 1.930 1.000      6.656  23.000
  757 1.920 1.634  2.206 1.000 1.00000 1.920 1.000      0.719  23.000
  758 1.920 1.634  2.206 1.000 1.00000 1.920 1.000      0.552  23.000
  759 1.940 1.652  2.228 1.000 1.00000 1.930 1.000      7.268  23.000
  760 1.920 1.634  2.206 1.000 1.00000 1.920 1.000      1.647  23.000
  761 1.920 1.634  2.206 1.000 1.00000 1.920 1.000      0.308  23.000
  762 1.920 1.634  2.206 1.000 1.00000 1.920 1.000      0.487  23.000
  763 1.920 1.634  2.206 1.000 1.00000 1.920 1.000      2.026  23.000
  764 1.960 1.670  2.250 1.000 1.00000 1.960 1.000     16.479  23.000
  765 1.930 1.643  2.217 1.000 1.00000 1.930 1.000      4.139  23.000
  766 1.920 1.634  2.206 1.000 1.00000 1.920 1.000      0.530  23.000
  767 1.930 1.643  2.217 1.000 1.00000 1.930 1.000      6.380  23.000
  768 1.930 1.643  2.217 1.000 1.00000 1.930 1.000      5.558  23.000
  769 1.960 1.670  2.250 1.000 1.00000 1.960 1.000     15.464  23.000
  770 1.920 1.634  2.206 1.000 1.00000 1.920 1.000      0.317  23.000
  771 1.920 1.634  2.206 1.000 1.00000 1.920 1.000      0.695  23.000
  772 1.930 1.643  2.217 1.000 1.00000 1.930 1.000      3.089  23.000
  773 1.930 1.643  2.217 1.000 1.00000 1.930 1.000      3.844  23.000
  774 1.920 1.634  2.206 1.000 1.00000 1.920 1.000      0.480  23.000
  775 1.930 1.643  2.217 1.000 1.00000 1.930 1.000      6.112  23.000
  776 1.930 1.643  2.217 1.000 1.00000 1.930 1.000      2.613  23.000
  777 1.930 1.643  2.217 1.000 1.00000 1.930 1.000      3.590  23.000
  778 1.930 1.643  2.217 1.000 1.00000 1.930 1.000      6.856  23.000
  779 1.960 1.670  2.250 1.000 1.00000 1.960 1.000     23.509  23.000
  780 1.920 1.634  2.206 1.000 1.00000 1.920 1.000      2.068  23.000
  781 1.930 1.643  2.217 1.000 1.00000 1.930 1.000      2.332  23.000
  782 1.920 1.634  2.206 1.000 1.00000 1.920 1.000      1.901  23.000
  783 1.960 1.670  2.250 1.000 1.00000 1.960 1.000      9.732  23.000
  784 1.960 1.670  2.250 1.000 1.00000 1.960 1.000     12.252  23.000
  785 1.960 1.670  2.250 1.000 1.00000 1.960 1.000     11.929  23.000
  786 1.930 1.643  2.217 1.000 1.00000 1.930 1.000      4.606  23.000
  787 1.940 1.652  2.228 1.000 1.00000 1.960 1.000      7.416  23.000
  788 1.930 1.643  2.217 1.000 1.00000 1.930 1.000      5.522  23.000
  789 1.960 1.670  2.250 1.000 1.00000 1.960 1.000      9.996  23.000
  790 1.960 1.670  2.250 1.000 1.00000 1.960 1.000      7.909  23.000
  791 1.920 1.634  2.206 1.000 1.00000 1.920 1.000      0.876  23.000
  792 1.960 1.670  2.250 1.000 1.00000 1.960 1.000     14.160  23.000
  793 1.920 1.634  2.206 1.000 1.00000 1.920 1.000      1.520  23.000
  794 1.920 1.634  2.206 1.000 1.00000 1.920 1.000      0.500  23.000
  795 1.930 1.643  2.217 1.000 1.00000 1.930 1.000      2.524  23.000
  796 1.960 1.670  2.250 1.000 1.00000 1.960 1.000      9.267  23.000
  797 1.920 1.634  2.206 1.000 1.00000 1.920 1.000      1.704  23.000
  798 1.920 1.634  2.206 1.000 1.00000 1.920 1.000      0.304  23.000
  799 1.960 1.670  2.250 1.000 1.00000 1.960 1.000     34.192  23.000
  800 1.920 1.634  2.206 1.000 1.00000 1.920 1.000      0.613  23.000
  801 1.960 1.670  2.250 1.000 1.00000 1.960 1.000      7.992  23.000
  802 1.940 1.652  2.228 1.000 1.00000 1.960 1.000      7.402  23.000
  803 1.960 1.670  2.250 1.000 1.00000 1.960 1.000      7.601  23.000
  804 1.920 1.634  2.206 1.000 1.00000 1.920 1.000      0.323  23.000
  805 1.930 1.643  2.217 1.000 1.00000 1.930 1.000      3.786  23.000
  806 1.960 1.670  2.250 1.000 1.00000 1.960 1.000     14.553  23.000
  807 1.920 1.634  2.206 1.000 1.00000 1.920 1.000      0.306  23.000
  808 1.960 1.670  2.250 1.000 1.00000 1.960 1.000     13.531  23.000
  809 1.930 1.643  2.217 1.000 1.00000 1.930 1.000      2.438  23.000
  810 1.960 1.670  2.250 1.000 1.00000 1.960 1.000     13.863  23.000
  811 1.920 1.634  2.206 1.000 1.00000 1.920 1.000      1.004  23.000
  812 1.960 1.670  2.250 1.000 1.00000 1.960 1.000     23.776  23.000
  813 1.940 1.652  2.228 1.000 1.00000 1.930 1.000      7.352  23.000
  814 1.920 1.634  2.206 1.000 1.00000 1.920 1.000      1.415  23.000
  815 1.920 1.634  2.206 1.000 1.00000 1.920 1.000      1.881  23.000
  816 1.930 1.643  2.217 1.000 1.00000 1.930 1.000      4.169  23.000
  817 1.960 1.670  2.250 1.000 1.00000 1.960 1.000     11.617  23.000
  818 1.960 1.670  2.250 1.000 1.00000 1.960 1.000     13.167  23.000
  819 1.920 1.634  2.206 1.000 1.00000 1.920 1.000      0.339  23.000
  820 1.960 1.670  2.250 1.000 1.00000 1.960 1.000     48.634  23.000
  821 1.960 1.670  2.250 1.000 1.00000 1.960 1.000     10.993  23.000
  822 1.960 1.670  2.250 1.000 1.00000 1.960 1.000      7.591  23.000
  823 1.960 1.670  2.250 1.000 1.00000 1.960 1.000      7.591  23.000
  824 1.920 1.634  2.206 1.000 1.00000 1.920 1.000      0.333  23.000
  825 1.960 1.670  2.250 1.000 1.00000 1.960 1.000      9.631  23.000
  826 1.960 1.670  2.250 1.000 1.00000 1.960 1.000     10.161  23.000
  827 1.960 1.670  2.250 1.000 1.00000 1.960 1.000     12.252  23.000
  828 1.930 1.643  2.217 1.000 1.00000 1.930 1.000      5.206  23.000
  829 1.920 1.634  2.206 1.000 1.00000 1.920 1.000      0.333  23.000
  830 1.920 1.634  2.206 1.000 1.00000 1.920 1.000      0.336  23.000
  831 1.920 1.634  2.206 1.000 1.00000 1.920 1.000      0.521  23.000
  832 1.930 1.643  2.217 1.000 1.00000 1.930 1.000      2.868  23.000
  833 1.930 1.643  2.217 1.000 1.00000 1.930 1.000      3.014  23.000
  834 1.920 1.634  2.206 1.000 1.00000 1.920 1.000      1.704  23.000
  835 1.930 1.643  2.217 1.000 1.00000 1.930 1.000      6.112  23.000
  836 1.920 1.634  2.206 1.000 1.00000 1.920 1.000      0.424  23.000
  837 1.960 1.670  2.250 1.000 1.00000 1.960 1.000      8.126  23.000
  838 1.930 1.643  2.217 1.000 1.00000 1.930 1.000      5.630  23.000
  839 1.920 1.634  2.206 1.000 1.00000 1.920 1.000      0.380  23.000
  840 1.960 1.670  2.250 1.000 1.00000 1.960 1.000      9.108  23.000
  841 1.930 1.643  2.217 1.000 1.00000 1.930 1.000      6.303  23.000
  842 1.920 1.634  2.206 1.000 1.00000 1.920 1.000      0.578  23.000
  843 1.960 1.670  2.250 1.000 1.00000 1.960 1.000      8.850  23.000
  844 1.960 1.670  2.250 1.000 1.00000 1.960 1.000      8.554  23.000
  845 1.960 1.670  2.250 1.000 1.00000 1.960 1.000     13.088  23.000
  846 1.930 1.643  2.217 1.000 1.00000 1.930 1.000      3.590  23.000
  847 1.920 1.634  2.206 1.000 1.00000 1.920 1.000      1.102  23.000
  848 1.920 1.634  2.206 1.000 1.00000 1.920 1.000      1.160  23.000
  849 1.930 1.643  2.217 1.000 1.00000 1.930 1.000      5.416  23.000
  850 1.920 1.634  2.206 1.000 1.00000 1.920 1.000      0.330  23.000
  851 1.960 1.670  2.250 1.000 1.00000 1.960 1.000     25.005  23.000
  852 1.920 1.634  2.206 1.000 1.00000 1.920 1.000      0.772  23.000
  853 1.960 1.670  2.250 1.000 1.00000 1.960 1.000     10.359  23.000
  854 1.930 1.643  2.217 1.000 1.00000 1.930 1.000      3.645  23.000
  855 1.920 1.634  2.206 1.000 1.00000 1.920 1.000      0.595  23.000
  856 1.920 1.634  2.206 1.000 1.00000 1.920 1.000      1.781  23.000
  857 1.930 1.643  2.217 1.000 1.00000 1.930 1.000      2.291  23.000
  858 1.920 1.634  2.206 1.000 1.00000 1.920 1.000      1.537  23.000
  859 1.920 1.634  2.206 1.000 1.00000 1.920 1.000      0.538  23.000
  860 1.940 1.652  2.228 1.000 1.00000 1.930 1.000      7.309  23.000
  861 1.960 1.670  2.250 1.000 1.00000 1.960 1.000     10.868  23.000
  862 1.920 1.634  2.206 1.000 1.00000 1.920 1.000      0.997  23.000
  863 1.960 1.670  2.250 1.000 1.00000 1.960 1.000     21.954  23.000
  864 1.920 1.634  2.206 1.000 1.00000 1.920 1.000      0.339  23.000
  865 1.960 1.670  2.250 1.000 1.00000 1.960 1.000     10.078  23.000
  866 1.920 1.634  2.206 1.000 1.00000 1.920 1.000      0.307  23.000
  867 1.920 1.634  2.206 1.000 1.00000 1.920 1.000      1.175  23.000
  868 1.950 1.661  2.239 1.000 1.00000 1.960 1.000      7.463  23.000
  869 1.920 1.634  2.206 1.000 1.00000 1.920 1.000      0.363  23.000
  870 1.930 1.643  2.217 1.000 1.00000 1.930 1.000      7.226  23.000
  871 1.930 1.643  2.217 1.000 1.00000 1.930 1.000      6.616  23.000
  872 1.920 1.634  2.206 1.000 1.00000 1.920 1.000      0.323  23.000
  873 1.930 1.643  2.217 1.000 1.00000 1.930 1.000      6.816  23.000
  874 1.930 1.643  2.217 1.000 1.00000 1.930 1.000      2.546  23.000
  875 1.960 1.670  2.250 1.000 1.00000 1.960 1.000      7.643  23.000
  876 1.960 1.670  2.250 1.000 1.00000 1.960 1.000     10.993  23.000
  877 1.920 1.634  2.206 1.000 1.00000 1.920 1.000      2.090  23.000
  878 1.930 1.643  2.217 1.000 1.00000 1.930 1.000      2.353  23.000
  879 1.930 1.643  2.217 1.000 1.00000 1.930 1.000      7.143  23.000
  880 1.920 1.634  2.206 1.000 1.00000 1.920 1.000      0.570  23.000
  881 1.920 1.634  2.206 1.000 1.00000 1.920 1.000      2.047  23.000
  882 1.960 1.670  2.250 1.000 1.00000 1.960 1.000      7.591  23.000
  883 1.930 1.643  2.217 1.000 1.00000 1.930 1.000      4.353  23.000
  884 1.920 1.634  2.206 1.000 1.00000 1.920 1.000      1.316  23.000
  885 1.930 1.643  2.217 1.000 1.00000 1.930 1.000      6.978  23.000
  886 1.930 1.643  2.217 1.000 1.00000 1.930 1.000      3.758  23.000
  887 1.960 1.670  2.250 1.000 1.00000 1.960 1.000      9.338  23.000
  888 1.920 1.634  2.206 1.000 1.00000 1.920 1.000      0.328  23.000
  889 1.930 1.643  2.217 1.000 1.00000 1.930 1.000      6.150  23.000
  890 1.930 1.643  2.217 1.000 1.00000 1.930 1.000      2.170  23.000
  891 1.930 1.643  2.217 1.000 1.00000 1.930 1.000      4.801  23.000
  892 1.960 1.670  2.250 1.000 1.00000 1.960 1.000     27.525  23.000
  893 1.930 1.643  2.217 1.000 1.00000 1.930 1.000      6.226  23.000
  894 1.920 1.634  2.206 1.000 1.00000 1.920 1.000      1.206  23.000
  895 1.930 1.643  2.217 1.000 1.00000 1.930 1.000      7.143  23.000
  896 1.960 1.670  2.250 1.000 1.00000 1.960 1.000     13.167  23.000
  897 1.920 1.634  2.206 1.000 1.00000 1.920 1.000      1.647  23.000
  898 1.960 1.670  2.250 1.000 1.00000 1.960 1.000     12.893  23.000
  899 1.920 1.634  2.206 1.000 1.00000 1.920 1.000      0.424  23.000
  900 1.920 1.634  2.206 1.000 1.00000 1.920 1.000      1.365  23.000
  901 1.960 1.670  2.250 1.000 1.00000 1.960 1.000      7.780  23.000
  902 1.960 1.670  2.250 1.000 1.00000 1.960 1.000      7.611  23.000
  903 1.960 1.670  2.250 1.000 1.00000 1.960 1.000      7.882  23.000
  904 1.920 1.634  2.206 1.000 1.00000 1.920 1.000      0.307  23.000
  905 1.930 1.643  2.217 1.000 1.00000 1.930 1.000      4.260  23.000
  906 1.960 1.670  2.250 1.000 1.00000 1.960 1.000      7.709  23.000
  907 1.930 1.643  2.217 1.000 1.00000 1.930 1.000      2.250  23.000
  908 1.920 1.634  2.206 1.000 1.00000 1.920 1.000      1.102  23.000
  909 1.930 1.643  2.217 1.000 1.00000 1.930 1.000      6.656  23.000
  910 1.920 1.634  2.206 1.000 1.00000 1.920 1.000      0.698  23.000
  911 1.920 1.634  2.206 1.000 1.00000 1.920 1.000      0.424  23.000
  912 1.960 1.670  2.250 1.000 1.00000 1.960 1.000     10.273  23.000
  913 1.950 1.661  2.239 1.000 1.00000 1.960 1.000      7.497  23.000
  914 1.960 1.670  2.250 1.000 1.00000 1.960 1.000     15.558  23.000
  915 1.960 1.670  2.250 1.000 1.00000 1.960 1.000     12.854  23.000
  916 1.930 1.643  2.217 1.000 1.00000 1.930 1.000      5.137  23.000
  917 1.930 1.643  2.217 1.000 1.00000 1.930 1.000      2.797  23.000
  918 1.920 1.634  2.206 1.000 1.00000 1.920 1.000      0.772  23.000
  919 1.920 1.634  2.206 1.000 1.00000 1.920 1.000      0.408  23.000
  920 1.960 1.670  2.250 1.000 1.00000 1.960 1.000     11.929  23.000
  921 1.960 1.670  2.250 1.000 1.00000 1.960 1.000      7.601  23.000
  922 1.930 1.643  2.217 1.000 1.00000 1.930 1.000      5.850  23.000
  923 1.960 1.670  2.250 1.000 1.00000 1.960 1.000     13.049  23.000
  924 1.930 1.643  2.217 1.000 1.00000 1.930 1.000      3.064  23.000
  925 1.920 1.634  2.206 1.000 1.00000 1.920 1.000      0.413  23.000
  926 1.960 1.670  2.250 1.000 1.00000 1.960 1.000      8.998  23.000
  927 1.930 1.643  2.217 1.000 1.00000 1.930 1.000      5.776  23.000
  928 1.930 1.643  2.217 1.000 1.00000 1.930 1.000      5.416  23.000
  929 1.920 1.634  2.206 1.000 1.00000 1.920 1.000      0.578  23.000
  930 1.960 1.670  2.250 1.000 1.00000 1.960 1.000     24.591  23.000
  931 1.960 1.670  2.250 1.000 1.00000 1.960 1.000     12.036  23.000
  932 1.920 1.634  2.206 1.000 1.00000 1.920 1.000      0.306  23.000
  933 1.930 1.643  2.217 1.000 1.00000 1.930 1.000      2.395  23.000
  934 1.940 1.652  2.228 1.000 1.00000 1.930 1.000      7.268  23.000
  935 1.920 1.634  2.206 1.000 1.00000 1.920 1.000      0.317  23.000
  936 1.930 1.643  2.217 1.000 1.00000 1.930 1.000      4.967  23.000
  937 1.920 1.634  2.206 1.000 1.00000 1.920 1.000      0.304  23.000
  938 1.930 1.643  2.217 1.000 1.00000 1.930 1.000      2.568  23.000
  939 1.920 1.634  2.206 1.000 1.00000 1.920 1.000      0.304  23.000
  940 1.930 1.643  2.217 1.000 1.00000 1.930 1.000      5.345  23.000
  941 1.960 1.670  2.250 1.000 1.00000 1.960 1.000      7.524  23.000
  942 1.930 1.643  2.217 1.000 1.00000 1.930 1.000      4.139  23.000
  943 1.920 1.634  2.206 1.000 1.00000 1.920 1.000      1.087  23.000
  944 1.920 1.634  2.206 1.000 1.00000 1.920 1.000      1.300  23.000
  945 1.920 1.634  2.206 1.000 1.00000 1.920 1.000      0.304  23.000
  946 1.960 1.670  2.250 1.000 1.00000 1.960 1.000      7.950  23.000
  947 1.920 1.634  2.206 1.000 1.00000 1.920 1.000      0.783  23.000
  948 1.930 1.643  2.217 1.000 1.00000 1.930 1.000      6.419  23.000
  949 1.920 1.634  2.206 1.000 1.00000 1.920 1.000      1.045  23.000
  950 1.920 1.634  2.206 1.000 1.00000 1.920 1.000      0.926  23.000
  951 1.930 1.643  2.217 1.000 1.00000 1.930 1.000      5.345  23.000
  952 1.920 1.634  2.206 1.000 1.00000 1.920 1.000      2.005  23.000
  953 1.920 1.634  2.206 1.000 1.00000 1.920 1.000      0.308  23.000
  954 1.960 1.670  2.250 1.000 1.00000 1.960 1.000     14.290  23.000
  955 1.930 1.643  2.217 1.000 1.00000 1.930 1.000      4.447  23.000
  956 1.920 1.634  2.206 1.000 1.00000 1.920 1.000      0.359  23.000
  957 1.920 1.634  2.206 1.000 1.00000 1.920 1.000      1.555  23.000
  958 1.930 1.643  2.217 1.000 1.00000 1.930 1.000      3.758  23.000
  959 1.930 1.643  2.217 1.000 1.00000 1.930 1.000      2.965  23.000
  960 1.930 1.643  2.217 1.000 1.00000 1.930 1.000      2.750  23.000
  961 1.920 1.634  2.206 1.000 1.00000 1.920 1.000      0.460  23.000
  962 1.920 1.634  2.206 1.000 1.00000 1.920 1.000      1.252  23.000
  963 1.920 1.634  2.206 1.000 1.00000 1.920 1.000      1.332  23.000
  964 1.930 1.643  2.217 1.000 1.00000 1.930 1.000      4.867  23.000
  965 1.930 1.643  2.217 1.000 1.00000 1.930 1.000      2.416  23.000
  966 1.920 1.634  2.206 1.000 1.00000 1.920 1.000      0.330  23.000
  967 1.920 1.634  2.206 1.000 1.00000 1.920 1.000      0.593  23.000
  968 1.920 1.634  2.206 1.000 1.00000 1.920 1.000      0.371  23.000
  969 1.920 1.634  2.206 1.000 1.00000 1.920 1.000      0.901  23.000
  970 1.920 1.634  2.206 1.000 1.00000 1.920 1.000      0.570  23.000
  971 1.920 1.634  2.206 1.000 1.00000 1.920 1.000      1.881  23.000
  972 1.920 1.634  2.206 1.000 1.00000 1.920 1.000      1.922  23.000
  973 1.960 1.670  2.250 1.000 1.00000 1.960 1.000     17.767  23.000
  974 1.930 1.643  2.217 1.000 1.00000 1.930 1.000      4.079  23.000
  975 1.920 1.634  2.206 1.000 1.00000 1.920 1.000      1.723  23.000
  976 1.920 1.634  2.206 1.000 1.00000 1.920 1.000      0.913  23.000
  977 1.930 1.643  2.217 1.000 1.00000 1.930 1.000      4.670  23.000
  978 1.920 1.634  2.206 1.000 1.00000 1.920 1.000      0.901  23.000
  979 1.930 1.643  2.217 1.000 1.00000 1.930 1.000      5.069  23.000
  980 1.960 1.670  2.250 1.000 1.00000 1.960 1.000      8.222  23.000
  981 1.930 1.643  2.217 1.000 1.00000 1.930 1.000      5.380  23.000
  982 1.920 1.634  2.206 1.000 1.00000 1.920 1.000      0.907  23.000
  983 1.930 1.643  2.217 1.000 1.00000 1.930 1.000      3.165  23.000
  984 1.960 1.670  2.250 1.000 1.00000 1.960 1.000     12.000  23.000
  985 1.960 1.670  2.250 1.000 1.00000 1.960 1.000      7.732  23.000
  986 1.960 1.670  2.250 1.000 1.00000 1.960 1.000      7.950  23.000
  987 1.930 1.643  2.217 1.000 1.00000 1.930 1.000      3.758  23.000
  988 1.950 1.661  2.239 1.000 1.00000 1.960 1.000      7.432  23.000
  989 1.920 1.634  2.206 1.000 1.00000 1.920 1.000      2.005  23.000
  990 1.920 1.634  2.206 1.000 1.00000 1.920 1.000      1.922  23.000
  991 1.920 1.634  2.206 1.000 1.00000 1.920 1.000      0.698  23.000
  992 1.960 1.670  2.250 1.000 1.00000 1.960 1.000     10.106  23.000
  993 1.920 1.634  2.206 1.000 1.00000 1.920 1.000      0.339  23.000
  994 1.930 1.643  2.217 1.000 1.00000 1.930 1.000      3.400  23.000
  995 1.920 1.634  2.206 1.000 1.00000 1.920 1.000      0.304  23.000
  996 1.920 1.634  2.206 1.000 1.00000 1.920 1.000      1.316  23.000
  997 1.960 1.670  2.250 1.000 1.00000 1.960 1.000      8.499  23.000
  998 1.960 1.670  2.250 1.000 1.00000 1.960 1.000      7.856  23.000
  999 1.920 1.634  2.206 1.000 1.00000 1.920 1.000      0.319  23.000
 1000 1.920 1.634  2.206 1.000 1.00000 1.920 1.000      0.719  23.000
 1001 1.930 1.643  2.217 1.000 1.00000 1.930 1.000      2.151  23.000
 1002 1.920 1.634  2.206 1.000 1.00000 1.920 1.000      0.339  23.000
 1003 1.920 1.634  2.206 1.000 1.00000 1.920 1.000      0.321  23.000
 1004 1.960 1.670  2.250 1.000 1.00000 1.960 1.000     41.547  23.000
 1005 1.920 1.634  2.206 1.000 1.00000 1.920 1.000      0.978  23.000
 1006 1.930 1.643  2.217 1.000 1.00000 1.930 1.000      2.481  23.000
 1007 1.960 1.670  2.250 1.000 1.00000 1.960 1.000      8.426  23.000
 1008 1.930 1.643  2.217 1.000 1.00000 1.930 1.000      2.481  23.000
 1009 1.920 1.634  2.206 1.000 1.00000 1.920 1.000      0.604  23.000
 1010 1.930 1.643  2.217 1.000 1.00000 1.930 1.000      5.103  23.000
 1011 1.920 1.634  2.206 1.000 1.00000 1.920 1.000      0.538  23.000
 1012 1.960 1.670  2.250 1.000 1.00000 1.960 1.000     20.359  23.000
 1013 1.960 1.670  2.250 1.000 1.00000 1.960 1.000      9.863  23.000
 1014 1.930 1.643  2.217 1.000 1.00000 1.930 1.000      4.415  23.000
 1015 1.920 1.634  2.206 1.000 1.00000 1.920 1.000      0.669  23.000
 1016 1.960 1.670  2.250 1.000 1.00000 1.960 1.000     11.348  23.000
 1017 1.960 1.670  2.250 1.000 1.00000 1.960 1.000      8.554  23.000
 1018 1.920 1.634  2.206 1.000 1.00000 1.920 1.000      2.112  23.000
 1019 1.960 1.670  2.250 1.000 1.00000 1.960 1.000      9.064  23.000
 1020 1.940 1.652  2.228 1.000 1.00000 1.930 1.000      7.268  23.000
 1021 1.930 1.643  2.217 1.000 1.00000 1.930 1.000      5.275  23.000
 1022 1.960 1.670  2.250 1.000 1.00000 1.960 1.000      7.581  23.000
 1023 1.920 1.634  2.206 1.000 1.00000 1.920 1.000      0.309  23.000
 1024 1.920 1.634  2.206 1.000 1.00000 1.920 1.000      1.252  23.000
 1025 1.920 1.634  2.206 1.000 1.00000 1.920 1.000      1.984  23.000
 1026 1.960 1.670  2.250 1.000 1.00000 1.960 1.000      8.480  23.000
 1027 1.920 1.634  2.206 1.000 1.00000 1.920 1.000      0.719  23.000
 1028 1.960 1.670  2.250 1.000 1.00000 1.960 1.000     10.505  23.000
 1029 1.940 1.652  2.228 1.000 1.00000 1.960 1.000      7.409  23.000
 1030 1.950 1.661  2.239 1.000 1.00000 1.960 1.000      7.432  23.000
 1031 1.920 1.634  2.206 1.000 1.00000 1.920 1.000      0.339  23.000
 1032 1.930 1.643  2.217 1.000 1.00000 1.930 1.000      4.606  23.000
 1033 1.920 1.634  2.206 1.000 1.00000 1.920 1.000      0.840  23.000
 1034 1.960 1.670  2.250 1.000 1.00000 1.960 1.000     12.893  23.000
 1035 1.930 1.643  2.217 1.000 1.00000 1.930 1.000      4.169  23.000
 1036 1.960 1.670  2.250 1.000 1.00000 1.960 1.000      8.111  23.000
 1037 1.920 1.634  2.206 1.000 1.00000 1.920 1.000      0.305  23.000
 1038 1.920 1.634  2.206 1.000 1.00000 1.920 1.000      0.363  23.000
 1039 1.920 1.634  2.206 1.000 1.00000 1.920 1.000      0.323  23.000
 1040 1.960 1.670  2.250 1.000 1.00000 1.960 1.000     14.421  23.000
 1041 1.920 1.634  2.206 1.000 1.00000 1.920 1.000      0.408  23.000
 1042 1.920 1.634  2.206 1.000 1.00000 1.920 1.000      0.978  23.000
 1043 1.960 1.670  2.250 1.000 1.00000 1.960 1.000     38.031  23.000
 1044 1.920 1.634  2.206 1.000 1.00000 1.920 1.000      2.090  23.000
 1045 1.920 1.634  2.206 1.000 1.00000 1.920 1.000      1.221  23.000
 1046 1.950 1.661  2.239 1.000 1.00000 1.960 1.000      7.439  23.000
 1047 1.960 1.670  2.250 1.000 1.00000 1.960 1.000     12.107  23.000
 1048 1.920 1.634  2.206 1.000 1.00000 1.920 1.000      0.695  23.000
 1049 1.920 1.634  2.206 1.000 1.00000 1.920 1.000      0.480  23.000
 1050 1.920 1.634  2.206 1.000 1.00000 1.920 1.000      0.330  23.000
 1051 1.920 1.634  2.206 1.000 1.00000 1.920 1.000      1.059  23.000
 1052 1.930 1.643  2.217 1.000 1.00000 1.930 1.000      2.941  23.000
 1053 1.960 1.670  2.250 1.000 1.00000 1.960 1.000      7.964  23.000
 1054 1.920 1.634  2.206 1.000 1.00000 1.920 1.000      0.501  23.000
 1055 1.960 1.670  2.250 1.000 1.00000 1.960 1.000     12.854  23.000
 1056 1.930 1.643  2.217 1.000 1.00000 1.930 1.000      6.303  23.000
 1057 1.920 1.634  2.206 1.000 1.00000 1.920 1.000      0.812  23.000
 1058 1.960 1.670  2.250 1.000 1.00000 1.960 1.000      7.515  23.000
 1059 1.960 1.670  2.250 1.000 1.00000 1.960 1.000      7.721  23.000
 1060 1.960 1.670  2.250 1.000 1.00000 1.960 1.000      8.955  23.000
 1061 1.920 1.634  2.206 1.000 1.00000 1.920 1.000      0.330  23.000
 1062 1.920 1.634  2.206 1.000 1.00000 1.920 1.000      0.311  23.000
 1063 1.930 1.643  2.217 1.000 1.00000 1.930 1.000      2.681  23.000
 1064 1.920 1.634  2.206 1.000 1.00000 1.920 1.000      1.102  23.000
 1065 1.920 1.634  2.206 1.000 1.00000 1.920 1.000      0.729  23.000
 1066 1.930 1.643  2.217 1.000 1.00000 1.930 1.000      3.508  23.000
 1067 1.930 1.643  2.217 1.000 1.00000 1.930 1.000      2.797  23.000
 1068 1.960 1.670  2.250 1.000 1.00000 1.960 1.000     10.051  23.000
 1069 1.920 1.634  2.206 1.000 1.00000 1.920 1.000      0.544  23.000
 1070 1.930 1.643  2.217 1.000 1.00000 1.930 1.000      3.320  23.000
 1071 1.960 1.670  2.250 1.000 1.00000 1.960 1.000      8.669  23.000
 1072 1.920 1.634  2.206 1.000 1.00000 1.920 1.000      0.926  23.000
 1073 1.930 1.643  2.217 1.000 1.00000 1.930 1.000      5.380  23.000
 1074 1.960 1.670  2.250 1.000 1.00000 1.960 1.000     11.185  23.000
 1075 1.960 1.670  2.250 1.000 1.00000 1.960 1.000     28.201  23.000
 1076 1.920 1.634  2.206 1.000 1.00000 1.920 1.000      1.742  23.000
 1077 1.920 1.634  2.206 1.000 1.00000 1.920 1.000      1.252  23.000
 1078 1.930 1.643  2.217 1.000 1.00000 1.930 1.000      7.101  23.000
 1079 1.960 1.670  2.250 1.000 1.00000 1.960 1.000      9.889  23.000
 1080 1.960 1.670  2.250 1.000 1.00000 1.960 1.000      7.721  23.000
 1081 1.950 1.661  2.239 1.000 1.00000 1.960 1.000      7.497  23.000
 1082 1.960 1.670  2.250 1.000 1.00000 1.960 1.000     12.662  23.000
 1083 1.930 1.643  2.217 1.000 1.00000 1.930 1.000      4.867  23.000
 1084 1.920 1.634  2.206 1.000 1.00000 1.920 1.000      0.817  23.000
 1085 1.920 1.634  2.206 1.000 1.00000 1.920 1.000      0.436  23.000
 1086 1.920 1.634  2.206 1.000 1.00000 1.920 1.000      0.414  23.000
 1087 1.930 1.643  2.217 1.000 1.00000 1.930 1.000      2.311  23.000
 1088 1.920 1.634  2.206 1.000 1.00000 1.920 1.000      0.932  23.000
 1089 1.930 1.643  2.217 1.000 1.00000 1.930 1.000      5.961  23.000
 1090 1.930 1.643  2.217 1.000 1.00000 1.930 1.000      2.568  23.000
 1091 1.930 1.643  2.217 1.000 1.00000 1.930 1.000      3.645  23.000
 1092 1.920 1.634  2.206 1.000 1.00000 1.920 1.000      2.090  23.000
 1093 1.920 1.634  2.206 1.000 1.00000 1.920 1.000      0.847  23.000
 1094 1.960 1.670  2.250 1.000 1.00000 1.960 1.000      7.964  23.000
 1095 1.920 1.634  2.206 1.000 1.00000 1.920 1.000      0.359  23.000
 1096 1.960 1.670  2.250 1.000 1.00000 1.960 1.000      9.409  23.000
 1097 1.960 1.670  2.250 1.000 1.00000 1.960 1.000     11.217  23.000
 1098 1.960 1.670  2.250 1.000 1.00000 1.960 1.000      7.675  23.000
 1099 1.930 1.643  2.217 1.000 1.00000 1.930 1.000      6.537  23.000
 1100 1.930 1.643  2.217 1.000 1.00000 1.930 1.000      2.591  23.000
 1101 1.960 1.670  2.250 1.000 1.00000 1.960 1.000     13.088  23.000
 1102 1.960 1.670  2.250 1.000 1.00000 1.960 1.000     20.539  23.000
 1103 1.920 1.634  2.206 1.000 1.00000 1.920 1.000      0.317  23.000
 1104 1.930 1.643  2.217 1.000 1.00000 1.930 1.000      6.856  23.000
 1105 1.960 1.670  2.250 1.000 1.00000 1.960 1.000     38.962  23.000
 1106 1.920 1.634  2.206 1.000 1.00000 1.920 1.000      0.408  23.000
 1107 1.930 1.643  2.217 1.000 1.00000 1.930 1.000      5.594  23.000
 1108 1.930 1.643  2.217 1.000 1.00000 1.930 1.000      2.374  23.000
 1109 1.940 1.652  2.228 1.000 1.00000 1.930 1.000      7.268  23.000
 1110 1.920 1.634  2.206 1.000 1.00000 1.920 1.000      0.553  23.000
 1111 1.920 1.634  2.206 1.000 1.00000 1.920 1.000      1.206  23.000
 1112 1.960 1.670  2.250 1.000 1.00000 1.960 1.000     37.115  23.000
 1113 1.950 1.661  2.239 1.000 1.00000 1.960 1.000      7.463  23.000
 1114 1.930 1.643  2.217 1.000 1.00000 1.930 1.000      5.558  23.000
 1115 1.920 1.634  2.206 1.000 1.00000 1.920 1.000      0.414  23.000
 1116 1.960 1.670  2.250 1.000 1.00000 1.960 1.000     13.613  23.000
 1117 1.920 1.634  2.206 1.000 1.00000 1.920 1.000      1.963  23.000
 1118 1.920 1.634  2.206 1.000 1.00000 1.920 1.000      0.794  23.000
 1119 1.920 1.634  2.206 1.000 1.00000 1.920 1.000      0.530  23.000
 1120 1.930 1.643  2.217 1.000 1.00000 1.930 1.000      2.374  23.000
 1121 1.960 1.670  2.250 1.000 1.00000 1.960 1.000      9.433  23.000
 1122 1.930 1.643  2.217 1.000 1.00000 1.930 1.000      4.139  23.000
 1123 1.920 1.634  2.206 1.000 1.00000 1.920 1.000      0.306  23.000
 1124 1.920 1.634  2.206 1.000 1.00000 1.920 1.000      0.901  23.000
 1125 1.920 1.634  2.206 1.000 1.00000 1.920 1.000      0.585  23.000
 1126 1.930 1.643  2.217 1.000 1.00000 1.930 1.000      5.001  23.000
 1127 1.920 1.634  2.206 1.000 1.00000 1.920 1.000      0.384  23.000
 1128 1.930 1.643  2.217 1.000 1.00000 1.930 1.000      2.681  23.000
 1129 1.920 1.634  2.206 1.000 1.00000 1.920 1.000      0.436  23.000
 1130 1.960 1.670  2.250 1.000 1.00000 1.960 1.000      8.126  23.000
 1131 1.920 1.634  2.206 1.000 1.00000 1.920 1.000      0.907  23.000
 1132 1.930 1.643  2.217 1.000 1.00000 1.930 1.000      5.310  23.000
 1133 1.960 1.670  2.250 1.000 1.00000 1.960 1.000      8.850  23.000
 1134 1.920 1.634  2.206 1.000 1.00000 1.920 1.000      0.384  23.000
 1135 1.920 1.634  2.206 1.000 1.00000 1.920 1.000      0.460  23.000
 1136 1.920 1.634  2.206 1.000 1.00000 1.920 1.000      0.562  23.000
 1137 1.920 1.634  2.206 1.000 1.00000 1.920 1.000      0.659  23.000
 1138 1.920 1.634  2.206 1.000 1.00000 1.920 1.000      0.308  23.000
 1139 1.920 1.634  2.206 1.000 1.00000 1.920 1.000      0.514  23.000
 1140 1.920 1.634  2.206 1.000 1.00000 1.920 1.000      0.538  23.000
 1141 1.930 1.643  2.217 1.000 1.00000 1.930 1.000      3.039  23.000
 1142 1.960 1.670  2.250 1.000 1.00000 1.960 1.000      7.581  23.000
 1143 1.920 1.634  2.206 1.000 1.00000 1.920 1.000      0.761  23.000
 1144 1.920 1.634  2.206 1.000 1.00000 1.920 1.000      0.486  23.000
 1145 1.920 1.634  2.206 1.000 1.00000 1.920 1.000      0.403  23.000
 1146 1.920 1.634  2.206 1.000 1.00000 1.920 1.000      0.328  23.000
 1147 1.960 1.670  2.250 1.000 1.00000 1.960 1.000      8.305  23.000
 1148 1.920 1.634  2.206 1.000 1.00000 1.920 1.000      1.059  23.000
 1149 1.920 1.634  2.206 1.000 1.00000 1.920 1.000      0.480  23.000
 1150 1.930 1.643  2.217 1.000 1.00000 1.930 1.000      2.844  23.000
 1151 1.930 1.643  2.217 1.000 1.00000 1.930 1.000      4.478  23.000
 1152 1.930 1.643  2.217 1.000 1.00000 1.930 1.000      2.416  23.000
 1153 1.920 1.634  2.206 1.000 1.00000 1.920 1.000      0.379  23.000
 1154 1.920 1.634  2.206 1.000 1.00000 1.920 1.000      1.484  23.000
 1155 1.960 1.670  2.250 1.000 1.00000 1.960 1.000     10.930  23.000
 1156 1.920 1.634  2.206 1.000 1.00000 1.920 1.000      0.480  23.000
 1157 1.920 1.634  2.206 1.000 1.00000 1.920 1.000      2.047  23.000
 1158 1.920 1.634  2.206 1.000 1.00000 1.920 1.000      1.685  23.000
 1159 1.930 1.643  2.217 1.000 1.00000 1.930 1.000      6.036  23.000
 1160 1.920 1.634  2.206 1.000 1.00000 1.920 1.000      1.484  23.000
 1161 1.960 1.670  2.250 1.000 1.00000 1.960 1.000     14.820  23.000
 1162 1.920 1.634  2.206 1.000 1.00000 1.920 1.000      0.852  23.000
 1163 1.920 1.634  2.206 1.000 1.00000 1.920 1.000      0.983  23.000
 1164 1.930 1.643  2.217 1.000 1.00000 1.930 1.000      4.900  23.000
 1165 1.920 1.634  2.206 1.000 1.00000 1.920 1.000      0.620  23.000
 1166 1.960 1.670  2.250 1.000 1.00000 1.960 1.000      8.356  23.000
 1167 1.960 1.670  2.250 1.000 1.00000 1.960 1.000      8.065  23.000
 1168 1.920 1.634  2.206 1.000 1.00000 1.920 1.000      0.587  23.000
 1169 1.920 1.634  2.206 1.000 1.00000 1.920 1.000      0.602  23.000
 1170 1.920 1.634  2.206 1.000 1.00000 1.920 1.000      0.454  23.000
 1171 1.920 1.634  2.206 1.000 1.00000 1.920 1.000      1.398  23.000
 1172 1.930 1.643  2.217 1.000 1.00000 1.930 1.000      3.758  23.000
 1173 1.960 1.670  2.250 1.000 1.00000 1.960 1.000     19.887  23.000
 1174 1.930 1.643  2.217 1.000 1.00000 1.930 1.000      7.060  23.000
 1175 1.920 1.634  2.206 1.000 1.00000 1.920 1.000      1.087  23.000
 1176 1.930 1.643  2.217 1.000 1.00000 1.930 1.000      3.268  23.000
 1177 1.920 1.634  2.206 1.000 1.00000 1.920 1.000      0.328  23.000
 1178 1.960 1.670  2.250 1.000 1.00000 1.960 1.000      7.533  23.000
 1179 1.920 1.634  2.206 1.000 1.00000 1.920 1.000      0.371  23.000
 1180 1.920 1.634  2.206 1.000 1.00000 1.920 1.000      2.026  23.000
 1181 1.960 1.670  2.250 1.000 1.00000 1.960 1.000      7.756  23.000
 1182 1.930 1.643  2.217 1.000 1.00000 1.930 1.000      2.658  23.000
 1183 1.920 1.634  2.206 1.000 1.00000 1.920 1.000      0.544  23.000
 1184 1.960 1.670  2.250 1.000 1.00000 1.960 1.000     10.388  23.000
 1185 1.920 1.634  2.206 1.000 1.00000 1.920 1.000      0.562  23.000
 1186 1.930 1.643  2.217 1.000 1.00000 1.930 1.000      4.900  23.000
 1187 1.960 1.670  2.250 1.000 1.00000 1.960 1.000      8.356  23.000
 1188 1.930 1.643  2.217 1.000 1.00000 1.930 1.000      2.868  23.000
 1189 1.920 1.634  2.206 1.000 1.00000 1.920 1.000      0.487  23.000
 1190 1.960 1.670  2.250 1.000 1.00000 1.960 1.000     19.027  23.000
 1191 1.930 1.643  2.217 1.000 1.00000 1.930 1.000      2.591  23.000
 1192 1.960 1.670  2.250 1.000 1.00000 1.960 1.000      7.869  23.000
 1193 1.920 1.634  2.206 1.000 1.00000 1.920 1.000      0.311  23.000
 1194 1.930 1.643  2.217 1.000 1.00000 1.930 1.000      5.776  23.000
 1195 1.920 1.634  2.206 1.000 1.00000 1.920 1.000      0.304  23.000
 1196 1.960 1.670  2.250 1.000 1.00000 1.960 1.000     12.549  23.000
 1197 1.920 1.634  2.206 1.000 1.00000 1.920 1.000      0.312  23.000
 1198 1.960 1.670  2.250 1.000 1.00000 1.960 1.000      8.021  23.000
 1199 1.960 1.670  2.250 1.000 1.00000 1.960 1.000     21.828  23.000
 1200 1.960 1.670  2.250 1.000 1.00000 1.960 1.000     19.597  23.000
 1201 1.920 1.634  2.206 1.000 1.00000 1.920 1.000      0.371  23.000
 1202 1.960 1.670  2.250 1.000 1.00000 1.960 1.000     41.450  23.000
 1203 1.930 1.643  2.217 1.000 1.00000 1.930 1.000      3.931  23.000
 1204 1.930 1.643  2.217 1.000 1.00000 1.930 1.000      6.897  23.000
 1205 1.960 1.670  2.250 1.000 1.00000 1.960 1.000     16.730  23.000
 1206 1.920 1.634  2.206 1.000 1.00000 1.920 1.000      0.883  23.000
 1207 1.920 1.634  2.206 1.000 1.00000 1.920 1.000      1.841  23.000
 1208 1.920 1.634  2.206 1.000 1.00000 1.920 1.000      1.236  23.000
 1209 1.920 1.634  2.206 1.000 1.00000 1.920 1.000      0.806  23.000
 1210 1.920 1.634  2.206 1.000 1.00000 1.920 1.000      0.311  23.000
 1211 1.930 1.643  2.217 1.000 1.00000 1.930 1.000      3.508  23.000
 1212 1.930 1.643  2.217 1.000 1.00000 1.930 1.000      5.172  23.000
 1213 1.960 1.670  2.250 1.000 1.00000 1.960 1.000     23.978  23.000
 1214 1.960 1.670  2.250 1.000 1.00000 1.960 1.000     28.658  23.000
 1215 1.960 1.670  2.250 1.000 1.00000 1.960 1.000      8.254  23.000
 1216 1.960 1.670  2.250 1.000 1.00000 1.960 1.000     10.273  23.000
 1217 1.920 1.634  2.206 1.000 1.00000 1.920 1.000      1.841  23.000
 1218 1.920 1.634  2.206 1.000 1.00000 1.920 1.000      0.740  23.000
 1219 1.930 1.643  2.217 1.000 1.00000 1.930 1.000      6.264  23.000
 1220 1.920 1.634  2.206 1.000 1.00000 1.920 1.000      0.359  23.000
 1221 1.920 1.634  2.206 1.000 1.00000 1.920 1.000      1.629  23.000
 1222 1.930 1.643  2.217 1.000 1.00000 1.930 1.000      6.226  23.000
 1223 1.920 1.634  2.206 1.000 1.00000 1.920 1.000      0.319  23.000
 1224 1.960 1.670  2.250 1.000 1.00000 1.960 1.000      8.007  23.000
 1225 1.930 1.643  2.217 1.000 1.00000 1.930 1.000      4.510  23.000
 1226 1.960 1.670  2.250 1.000 1.00000 1.960 1.000     25.921  23.000
 1227 1.960 1.670  2.250 1.000 1.00000 1.960 1.000     14.032  23.000
 1228 1.960 1.670  2.250 1.000 1.00000 1.960 1.000     18.360  23.000
 1229 1.960 1.670  2.250 1.000 1.00000 1.960 1.000     17.035  23.000
 1230 1.920 1.634  2.206 1.000 1.00000 1.920 1.000      0.864  23.000
 1231 1.930 1.643  2.217 1.000 1.00000 1.930 1.000      2.416  23.000
 1232 1.920 1.634  2.206 1.000 1.00000 1.920 1.000      0.529  23.000
 1233 1.930 1.643  2.217 1.000 1.00000 1.930 1.000      4.415  23.000
 1234 1.960 1.670  2.250 1.000 1.00000 1.960 1.000      8.630  23.000
 1235 1.920 1.634  2.206 1.000 1.00000 1.920 1.000      0.308  23.000
 1236 1.920 1.634  2.206 1.000 1.00000 1.920 1.000      1.592  23.000
 1237 1.920 1.634  2.206 1.000 1.00000 1.920 1.000      0.305  23.000
 1238 1.960 1.670  2.250 1.000 1.00000 1.960 1.000      8.955  23.000
 1239 1.960 1.670  2.250 1.000 1.00000 1.960 1.000      7.675  23.000
 1240 1.960 1.670  2.250 1.000 1.00000 1.960 1.000      9.131  23.000
 1241 1.920 1.634  2.206 1.000 1.00000 1.920 1.000      1.922  23.000
 1242 1.920 1.634  2.206 1.000 1.00000 1.920 1.000      0.817  23.000
 1243 1.920 1.634  2.206 1.000 1.00000 1.920 1.000      0.359  23.000
 1244 1.930 1.643  2.217 1.000 1.00000 1.930 1.000      4.542  23.000
 1245 1.930 1.643  2.217 1.000 1.00000 1.930 1.000      4.867  23.000
 1246 1.930 1.643  2.217 1.000 1.00000 1.930 1.000      4.574  23.000
 1247 1.960 1.670  2.250 1.000 1.00000 1.960 1.000      7.543  23.000
 1248 1.920 1.634  2.206 1.000 1.00000 1.920 1.000      0.448  23.000
 1249 1.920 1.634  2.206 1.000 1.00000 1.920 1.000      0.306  23.000
 1250 1.920 1.634  2.206 1.000 1.00000 1.920 1.000      0.757  23.000
 1251 1.920 1.634  2.206 1.000 1.00000 1.920 1.000      1.762  23.000
 1252 1.920 1.634  2.206 1.000 1.00000 1.920 1.000      0.380  23.000
 1253 1.930 1.643  2.217 1.000 1.00000 1.930 1.000      3.242  23.000
 1254 1.930 1.643  2.217 1.000 1.00000 1.930 1.000      2.965  23.000
 1255 1.930 1.643  2.217 1.000 1.00000 1.930 1.000      3.320  23.000
 1256 1.930 1.643  2.217 1.000 1.00000 1.930 1.000      2.270  23.000
 1257 1.960 1.670  2.250 1.000 1.00000 1.960 1.000      8.850  23.000
 1258 1.950 1.661  2.239 1.000 1.00000 1.960 1.000      7.489  23.000
 1259 1.920 1.634  2.206 1.000 1.00000 1.920 1.000      0.304  23.000
 1260 1.960 1.670  2.250 1.000 1.00000 1.960 1.000     33.083  23.000
 1261 1.920 1.634  2.206 1.000 1.00000 1.920 1.000      1.398  23.000
 1262 1.920 1.634  2.206 1.000 1.00000 1.920 1.000      0.698  23.000
 1263 1.930 1.643  2.217 1.000 1.00000 1.930 1.000      4.735  23.000
 1264 1.950 1.661  2.239 1.000 1.00000 1.960 1.000      7.432  23.000
 1265 1.920 1.634  2.206 1.000 1.00000 1.920 1.000      0.304  23.000
 1266 1.960 1.670  2.250 1.000 1.00000 1.960 1.000     10.714  23.000
 1267 1.960 1.670  2.250 1.000 1.00000 1.960 1.000      7.562  23.000
 1268 1.930 1.643  2.217 1.000 1.00000 1.930 1.000      3.320  23.000
 1269 1.960 1.670  2.250 1.000 1.00000 1.960 1.000      7.515  23.000
 1270 1.930 1.643  2.217 1.000 1.00000 1.930 1.000      5.380  23.000
 1271 1.960 1.670  2.250 1.000 1.00000 1.960 1.000     64.263  23.000
 1272 1.930 1.643  2.217 1.000 1.00000 1.930 1.000      4.108  23.000
 1273 1.960 1.670  2.250 1.000 1.00000 1.960 1.000     11.448  23.000
 1274 1.930 1.643  2.217 1.000 1.00000 1.930 1.000      2.374  23.000
 1275 1.960 1.670  2.250 1.000 1.00000 1.960 1.000     37.206  23.000
 1276 1.920 1.634  2.206 1.000 1.00000 1.920 1.000      0.408  23.000
 1277 1.920 1.634  2.206 1.000 1.00000 1.920 1.000      0.336  23.000
 1278 1.950 1.661  2.239 1.000 1.00000 1.960 1.000      7.480  23.000
 1279 1.960 1.670  2.250 1.000 1.00000 1.960 1.000      7.643  23.000
 1280 1.920 1.634  2.206 1.000 1.00000 1.920 1.000      0.389  23.000
 1281 1.920 1.634  2.206 1.000 1.00000 1.920 1.000      0.393  23.000
 1282 1.920 1.634  2.206 1.000 1.00000 1.920 1.000      1.131  23.000
 1283 1.920 1.634  2.206 1.000 1.00000 1.920 1.000      1.704  23.000
 1284 1.960 1.670  2.250 1.000 1.00000 1.960 1.000     10.534  23.000
 1285 1.960 1.670  2.250 1.000 1.00000 1.960 1.000      7.732  23.000
 1286 1.960 1.670  2.250 1.000 1.00000 1.960 1.000      7.571  23.000
 1287 1.920 1.634  2.206 1.000 1.00000 1.920 1.000      0.367  23.000
 1288 1.920 1.634  2.206 1.000 1.00000 1.920 1.000      2.005  23.000
 1289 1.920 1.634  2.206 1.000 1.00000 1.920 1.000      0.311  23.000
 1290 1.920 1.634  2.206 1.000 1.00000 1.920 1.000      0.570  23.000
 1291 1.920 1.634  2.206 1.000 1.00000 1.920 1.000      0.876  23.000
 1292 1.920 1.634  2.206 1.000 1.00000 1.920 1.000      0.430  23.000
 1293 1.920 1.634  2.206 1.000 1.00000 1.920 1.000      0.926  23.000
 1294 1.930 1.643  2.217 1.000 1.00000 1.930 1.000      3.373  23.000
 1295 1.960 1.670  2.250 1.000 1.00000 1.960 1.000     12.071  23.000
 1296 1.920 1.634  2.206 1.000 1.00000 1.920 1.000      0.530  23.000
 1297 1.960 1.670  2.250 1.000 1.00000 1.960 1.000     11.824  23.000
 1298 1.930 1.643  2.217 1.000 1.00000 1.930 1.000      4.199  23.000
 1299 1.920 1.634  2.206 1.000 1.00000 1.920 1.000      0.367  23.000
 1300 1.960 1.670  2.250 1.000 1.00000 1.960 1.000      7.922  23.000
 1301 1.920 1.634  2.206 1.000 1.00000 1.920 1.000      0.507  23.000
 1302 1.960 1.670  2.250 1.000 1.00000 1.960 1.000      8.592  23.000
 1303 1.930 1.643  2.217 1.000 1.00000 1.930 1.000      6.188  23.000
 1304 1.920 1.634  2.206 1.000 1.00000 1.920 1.000      0.631  23.000
 1305 1.930 1.643  2.217 1.000 1.00000 1.930 1.000      2.636  23.000
 1306 1.960 1.670  2.250 1.000 1.00000 1.960 1.000     12.362  23.000
 1307 1.930 1.643  2.217 1.000 1.00000 1.930 1.000      6.188  23.000
 1308 1.920 1.634  2.206 1.000 1.00000 1.920 1.000      0.312  23.000
 1309 1.920 1.634  2.206 1.000 1.00000 1.920 1.000      0.460  23.000
 1310 1.920 1.634  2.206 1.000 1.00000 1.920 1.000      1.316  23.000
 1311 1.960 1.670  2.250 1.000 1.00000 1.960 1.000     10.624  23.000
 1312 1.960 1.670  2.250 1.000 1.00000 1.960 1.000     11.088  23.000
 1313 1.930 1.643  2.217 1.000 1.00000 1.930 1.000      3.014  23.000
 1314 1.920 1.634  2.206 1.000 1.00000 1.920 1.000      1.922  23.000
 1315 1.930 1.643  2.217 1.000 1.00000 1.930 1.000      4.108  23.000
 1316 1.920 1.634  2.206 1.000 1.00000 1.920 1.000      1.348  23.000
 1317 1.930 1.643  2.217 1.000 1.00000 1.930 1.000      3.535  23.000
 1318 1.920 1.634  2.206 1.000 1.00000 1.920 1.000      0.514  23.000
 1319 1.920 1.634  2.206 1.000 1.00000 1.920 1.000      0.901  23.000
 1320 1.960 1.670  2.250 1.000 1.00000 1.960 1.000     14.686  23.000
 1321 1.920 1.634  2.206 1.000 1.00000 1.920 1.000      0.304  23.000
 1322 1.920 1.634  2.206 1.000 1.00000 1.920 1.000      0.441  23.000
 1323 1.960 1.670  2.250 1.000 1.00000 1.960 1.000     30.456  23.000
 1324 1.920 1.634  2.206 1.000 1.00000 1.920 1.000      0.317  23.000
 1325 1.960 1.670  2.250 1.000 1.00000 1.960 1.000     12.399  23.000
 1326 1.920 1.634  2.206 1.000 1.00000 1.930 1.000      2.131  23.000
 1327 1.940 1.652  2.228 1.000 1.00000 1.960 1.000      7.409  23.000
 1328 1.920 1.634  2.206 1.000 1.00000 1.920 1.000      0.336  23.000
 1329 1.930 1.643  2.217 1.000 1.00000 1.930 1.000      3.701  23.000
 1330 1.960 1.670  2.250 1.000 1.00000 1.960 1.000     16.629  23.000
 1331 1.960 1.670  2.250 1.000 1.00000 1.960 1.000      7.780  23.000
 1332 1.920 1.634  2.206 1.000 1.00000 1.920 1.000      1.018  23.000
 1333 1.930 1.643  2.217 1.000 1.00000 1.930 1.000      5.380  23.000
 1334 1.920 1.634  2.206 1.000 1.00000 1.920 1.000      0.508  23.000
 1335 1.930 1.643  2.217 1.000 1.00000 1.930 1.000      4.542  23.000
 1336 1.920 1.634  2.206 1.000 1.00000 1.920 1.000      0.544  23.000
 1337 1.920 1.634  2.206 1.000 1.00000 1.920 1.000      0.649  23.000
 1338 1.930 1.643  2.217 1.000 1.00000 1.930 1.000      6.856  23.000
 1339 1.960 1.670  2.250 1.000 1.00000 1.960 1.000     16.430  23.000
 1340 1.920 1.634  2.206 1.000 1.00000 1.920 1.000      0.460  23.000
 1341 1.930 1.643  2.217 1.000 1.00000 1.930 1.000      2.502  23.000
 1342 1.920 1.634  2.206 1.000 1.00000 1.920 1.000      0.309  23.000
 1343 1.920 1.634  2.206 1.000 1.00000 1.920 1.000      0.473  23.000
 1344 1.920 1.634  2.206 1.000 1.00000 1.920 1.000      0.530  23.000
 1345 1.920 1.634  2.206 1.000 1.00000 1.920 1.000      0.553  23.000
 1346 1.940 1.652  2.228 1.000 1.00000 1.960 1.000      7.416  23.000
 1347 1.960 1.670  2.250 1.000 1.00000 1.960 1.000     30.456  23.000
 1348 1.960 1.670  2.250 1.000 1.00000 1.960 1.000      9.314  23.000
 1349 1.960 1.670  2.250 1.000 1.00000 1.960 1.000     20.539  23.000
 1350 1.920 1.634  2.206 1.000 1.00000 1.920 1.000      1.942  23.000
 1351 1.920 1.634  2.206 1.000 1.00000 1.920 1.000      0.852  23.000
 1352 1.920 1.634  2.206 1.000 1.00000 1.920 1.000      0.371  23.000
 1353 1.960 1.670  2.250 1.000 1.00000 1.960 1.000     14.730  23.000
 1354 1.920 1.634  2.206 1.000 1.00000 1.920 1.000      0.678  23.000
 1355 1.920 1.634  2.206 1.000 1.00000 1.930 1.000      2.131  23.000
 1356 1.920 1.634  2.206 1.000 1.00000 1.920 1.000      1.821  23.000
 1357 1.960 1.670  2.250 1.000 1.00000 1.960 1.000      8.850  23.000
 1358 1.930 1.643  2.217 1.000 1.00000 1.930 1.000      6.342  23.000
 1359 1.920 1.634  2.206 1.000 1.00000 1.920 1.000      0.398  23.000
 1360 1.920 1.634  2.206 1.000 1.00000 1.920 1.000      0.328  23.000
 1361 1.920 1.634  2.206 1.000 1.00000 1.920 1.000      1.942  23.000
 1362 1.920 1.634  2.206 1.000 1.00000 1.920 1.000      0.304  23.000
 1363 1.920 1.634  2.206 1.000 1.00000 1.920 1.000      0.939  23.000
 1364 1.930 1.643  2.217 1.000 1.00000 1.930 1.000      6.150  23.000
 1365 1.920 1.634  2.206 1.000 1.00000 1.920 1.000      0.375  23.000
 1366 1.960 1.670  2.250 1.000 1.00000 1.960 1.000      7.581  23.000
 1367 1.920 1.634  2.206 1.000 1.00000 1.920 1.000      1.145  23.000
 1368 1.960 1.670  2.250 1.000 1.00000 1.960 1.000     18.970  23.000
 1369 1.920 1.634  2.206 1.000 1.00000 1.920 1.000      0.352  23.000
 1370 1.940 1.652  2.228 1.000 1.00000 1.960 1.000      7.416  23.000
 1371 1.960 1.670  2.250 1.000 1.00000 1.960 1.000      9.409  23.000
 1372 1.960 1.670  2.250 1.000 1.00000 1.960 1.000     13.863  23.000
 1373 1.930 1.643  2.217 1.000 1.00000 1.930 1.000      3.242  23.000
 1374 1.920 1.634  2.206 1.000 1.00000 1.920 1.000      0.666  23.000
 1375 1.930 1.643  2.217 1.000 1.00000 1.930 1.000      3.730  23.000
 1376 1.920 1.634  2.206 1.000 1.00000 1.920 1.000      0.688  23.000
 1377 1.930 1.643  2.217 1.000 1.00000 1.930 1.000      4.322  23.000
 1378 1.920 1.634  2.206 1.000 1.00000 1.920 1.000      0.393  23.000
 1379 1.920 1.634  2.206 1.000 1.00000 1.920 1.000      0.305  23.000
 1380 1.960 1.670  2.250 1.000 1.00000 1.960 1.000     22.144  23.000
 1381 1.920 1.634  2.206 1.000 1.00000 1.920 1.000      0.740  23.000
 1382 1.920 1.634  2.206 1.000 1.00000 1.920 1.000      0.355  23.000
 1383 1.930 1.643  2.217 1.000 1.00000 1.930 1.000      4.230  23.000
 1384 1.920 1.634  2.206 1.000 1.00000 1.920 1.000      0.939  23.000
 1385 1.960 1.670  2.250 1.000 1.00000 1.960 1.000      7.709  23.000
 1386 1.930 1.643  2.217 1.000 1.00000 1.930 1.000      2.750  23.000
 1387 1.920 1.634  2.206 1.000 1.00000 1.920 1.000      0.487  23.000
 1388 1.960 1.670  2.250 1.000 1.00000 1.960 1.000     13.654  23.000
 1389 1.960 1.670  2.250 1.000 1.00000 1.960 1.000      9.784  23.000
 1390 1.960 1.670  2.250 1.000 1.00000 1.960 1.000     11.859  23.000
 1391 1.930 1.643  2.217 1.000 1.00000 1.930 1.000      2.941  23.000
 1392 1.920 1.634  2.206 1.000 1.00000 1.920 1.000      0.389  23.000
 1393 1.960 1.670  2.250 1.000 1.00000 1.960 1.000      9.784  23.000
 1394 1.920 1.634  2.206 1.000 1.00000 1.920 1.000      1.332  23.000
 1395 1.920 1.634  2.206 1.000 1.00000 1.920 1.000      1.145  23.000
 1396 1.920 1.634  2.206 1.000 1.00000 1.920 1.000      0.779  23.000
 1397 1.960 1.670  2.250 1.000 1.00000 1.960 1.000      8.748  23.000
 1398 1.930 1.643  2.217 1.000 1.00000 1.930 1.000      2.844  23.000
 1399 1.930 1.643  2.217 1.000 1.00000 1.930 1.000      3.114  23.000
 1400 1.930 1.643  2.217 1.000 1.00000 1.930 1.000      3.320  23.000
 1401 1.920 1.634  2.206 1.000 1.00000 1.920 1.000      0.304  23.000
 1402 1.920 1.634  2.206 1.000 1.00000 1.920 1.000      0.640  23.000
 1403 1.960 1.670  2.250 1.000 1.00000 1.960 1.000     18.746  23.000
 1404 1.930 1.643  2.217 1.000 1.00000 1.930 1.000      4.638  23.000
 1405 1.930 1.643  2.217 1.000 1.00000 1.930 1.000      5.241  23.000
 1406 1.920 1.634  2.206 1.000 1.00000 1.920 1.000      0.408  23.000
 1407 1.930 1.643  2.217 1.000 1.00000 1.930 1.000      5.630  23.000
 1408 1.920 1.634  2.206 1.000 1.00000 1.920 1.000      0.595  23.000
 1409 1.960 1.670  2.250 1.000 1.00000 1.960 1.000     29.353  23.000
 1410 1.920 1.634  2.206 1.000 1.00000 1.920 1.000      0.480  23.000
 1411 1.920 1.634  2.206 1.000 1.00000 1.920 1.000      1.116  23.000
 1412 1.960 1.670  2.250 1.000 1.00000 1.960 1.000      7.843  23.000
 1413 1.960 1.670  2.250 1.000 1.00000 1.960 1.000     21.515  23.000
 1414 1.930 1.643  2.217 1.000 1.00000 1.930 1.000      3.508  23.000
 1415 1.920 1.634  2.206 1.000 1.00000 1.920 1.000      0.640  23.000
 1416 1.920 1.634  2.206 1.000 1.00000 1.920 1.000      0.384  23.000
 1417 1.920 1.634  2.206 1.000 1.00000 1.920 1.000      0.640  23.000
 1418 1.960 1.670  2.250 1.000 1.00000 1.960 1.000      7.805  23.000
 1419 1.960 1.670  2.250 1.000 1.00000 1.960 1.000     32.330  23.000
 1420 1.960 1.670  2.250 1.000 1.00000 1.960 1.000      7.515  23.000
 1421 1.930 1.643  2.217 1.000 1.00000 1.930 1.000      3.758  23.000
 1422 1.930 1.643  2.217 1.000 1.00000 1.930 1.000      2.658  23.000
 1423 1.920 1.634  2.206 1.000 1.00000 1.920 1.000      0.530  23.000
 1424 1.960 1.670  2.250 1.000 1.00000 1.960 1.000      9.221  23.000
 1425 1.930 1.643  2.217 1.000 1.00000 1.930 1.000      2.727  23.000
 1426 1.920 1.634  2.206 1.000 1.00000 1.920 1.000      0.311  23.000
 1427 2.060 1.760  2.360 1.000 1.00000 2.060 1.000     95.288  23.000
 1428 1.960 1.670  2.250 1.000 1.00000 1.960 1.000      7.732  23.000
 1429 1.920 1.634  2.206 1.000 1.00000 1.920 1.000      0.552  23.000
 1430 1.960 1.670  2.250 1.000 1.00000 1.960 1.000     13.905  23.000
 1431 1.930 1.643  2.217 1.000 1.00000 1.930 1.000      3.320  23.000
 1432 1.960 1.670  2.250 1.000 1.00000 1.960 1.000      8.573  23.000
 1433 1.920 1.634  2.206 1.000 1.00000 1.920 1.000      1.236  23.000
 1434 1.960 1.670  2.250 1.000 1.00000 1.960 1.000     10.359  23.000
 1435 1.960 1.670  2.250 1.000 1.00000 1.960 1.000      9.707  23.000
 1436 1.960 1.670  2.250 1.000 1.00000 1.960 1.000      8.573  23.000
 1437 1.960 1.670  2.250 1.000 1.00000 1.960 1.000      9.361  23.000
 1438 1.920 1.634  2.206 1.000 1.00000 1.920 1.000      0.522  23.000
 1439 1.920 1.634  2.206 1.000 1.00000 1.920 1.000      1.647  23.000
 1440 1.930 1.643  2.217 1.000 1.00000 1.930 1.000      5.035  23.000
 1441 1.920 1.634  2.206 1.000 1.00000 1.920 1.000      0.747  23.000
 1442 1.930 1.643  2.217 1.000 1.00000 1.930 1.000      3.873  23.000
 1443 1.960 1.670  2.250 1.000 1.00000 1.960 1.000     23.978  23.000
 1444 1.930 1.643  2.217 1.000 1.00000 1.930 1.000      7.019  23.000
 1445 1.920 1.634  2.206 1.000 1.00000 1.920 1.000      0.367  23.000
 1446 1.920 1.634  2.206 1.000 1.00000 1.920 1.000      0.473  23.000
 1447 1.930 1.643  2.217 1.000 1.00000 1.930 1.000      6.897  23.000
 1448 1.930 1.643  2.217 1.000 1.00000 1.930 1.000      2.844  23.000
 1449 1.960 1.670  2.250 1.000 1.00000 1.960 1.000      8.955  23.000
 1450 1.920 1.634  2.206 1.000 1.00000 1.920 1.000      0.308  23.000
 1451 1.920 1.634  2.206 1.000 1.00000 1.920 1.000      0.817  23.000
 1452 1.920 1.634  2.206 1.000 1.00000 1.920 1.000      0.319  23.000
 1453 1.920 1.634  2.206 1.000 1.00000 1.920 1.000      0.570  23.000
 1454 1.960 1.670  2.250 1.000 1.00000 1.960 1.000      7.552  23.000
 1455 1.960 1.670  2.250 1.000 1.00000 1.960 1.000     11.088  23.000
 1456 1.930 1.643  2.217 1.000 1.00000 1.930 1.000      4.108  23.000
 1457 1.960 1.670  2.250 1.000 1.00000 1.960 1.000      8.650  23.000
 1458 1.930 1.643  2.217 1.000 1.00000 1.930 1.000      2.916  23.000
 1459 1.920 1.634  2.206 1.000 1.00000 1.920 1.000      0.339  23.000
 1460 1.930 1.643  2.217 1.000 1.00000 1.930 1.000      2.892  23.000
 1461 1.930 1.643  2.217 1.000 1.00000 1.930 1.000      4.322  23.000
 1462 1.930 1.643  2.217 1.000 1.00000 1.930 1.000      6.419  23.000
 1463 1.920 1.634  2.206 1.000 1.00000 1.920 1.000      0.304  23.000
 1464 1.960 1.670  2.250 1.000 1.00000 1.960 1.000     34.106  23.000
 1465 1.960 1.670  2.250 1.000 1.00000 1.960 1.000     13.572  23.000
 1466 1.930 1.643  2.217 1.000 1.00000 1.930 1.000      4.703  23.000
 1467 1.920 1.634  2.206 1.000 1.00000 1.920 1.000      0.546  23.000
 1468 1.920 1.634  2.206 1.000 1.00000 1.920 1.000      2.005  23.000
 1469 1.930 1.643  2.217 1.000 1.00000 1.930 1.000      6.188  23.000
 1470 1.920 1.634  2.206 1.000 1.00000 1.920 1.000      0.312  23.000
 1471 1.960 1.670  2.250 1.000 1.00000 1.960 1.000      7.686  23.000
 1472 1.920 1.634  2.206 1.000 1.00000 1.920 1.000      0.585  23.000
 1473 1.930 1.643  2.217 1.000 1.00000 1.930 1.000      4.735  23.000
 1474 1.920 1.634  2.206 1.000 1.00000 1.920 1.000      0.379  23.000
 1475 1.960 1.670  2.250 1.000 1.00000 1.960 1.000      9.086  23.000
 1476 1.930 1.643  2.217 1.000 1.00000 1.930 1.000      3.645  23.000
 1477 1.960 1.670  2.250 1.000 1.00000 1.960 1.000      7.506  23.000
 1478 1.920 1.634  2.206 1.000 1.00000 1.920 1.000      1.942  23.000
 1479 1.920 1.634  2.206 1.000 1.00000 1.920 1.000      1.316  23.000
 1480 1.930 1.643  2.217 1.000 1.00000 1.930 1.000      3.701  23.000
 1481 1.930 1.643  2.217 1.000 1.00000 1.930 1.000      5.103  23.000
 1482 1.930 1.643  2.217 1.000 1.00000 1.930 1.000      5.558  23.000
 1483 1.930 1.643  2.217 1.000 1.00000 1.930 1.000      3.730  23.000
 1484 1.930 1.643  2.217 1.000 1.00000 1.930 1.000      5.924  23.000
 1485 1.930 1.643  2.217 1.000 1.00000 1.930 1.000      5.069  23.000
 1486 1.930 1.643  2.217 1.000 1.00000 1.930 1.000      4.260  23.000
 1487 1.960 1.670  2.250 1.000 1.00000 1.960 1.000     23.443  23.000
 1488 1.920 1.634  2.206 1.000 1.00000 1.920 1.000      0.553  23.000
 1489 1.960 1.670  2.250 1.000 1.00000 1.960 1.000      8.592  23.000
 1490 1.920 1.634  2.206 1.000 1.00000 1.920 1.000      1.901  23.000
 1491 1.930 1.643  2.217 1.000 1.00000 1.930 1.000      4.079  23.000
 1492 1.920 1.634  2.206 1.000 1.00000 1.920 1.000      0.430  23.000
 1493 1.920 1.634  2.206 1.000 1.00000 1.920 1.000      1.300  23.000
 1494 1.930 1.643  2.217 1.000 1.00000 1.930 1.000      5.035  23.000
 1495 1.920 1.634  2.206 1.000 1.00000 1.920 1.000      0.847  23.000
 1496 1.920 1.634  2.206 1.000 1.00000 1.920 1.000      0.538  23.000
 1497 1.920 1.634  2.206 1.000 1.00000 1.920 1.000      0.342  23.000
 1498 1.930 1.643  2.217 1.000 1.00000 1.930 1.000      5.887  23.000
 1499 1.920 1.634  2.206 1.000 1.00000 1.920 1.000      1.647  23.000
 1500 1.920 1.634  2.206 1.000 1.00000 1.920 1.000      0.473  23.000
 1501 1.930 1.643  2.217 1.000 1.00000 1.930 1.000      2.481  23.000
 1502 1.920 1.634  2.206 1.000 1.00000 1.920 1.000      0.467  23.000
 1503 1.930 1.643  2.217 1.000 1.00000 1.930 1.000      4.139  23.000
 1504 1.960 1.670  2.250 1.000 1.00000 1.960 1.000      9.385  23.000
 1505 1.920 1.634  2.206 1.000 1.00000 1.920 1.000      0.321  23.000
 1506 1.920 1.634  2.206 1.000 1.00000 1.920 1.000      1.206  23.000
 1507 1.930 1.643  2.217 1.000 1.00000 1.930 1.000      6.856  23.000
 1508 1.920 1.634  2.206 1.000 1.00000 1.920 1.000      1.160  23.000
 1509 1.930 1.643  2.217 1.000 1.00000 1.930 1.000      4.169  23.000
 1510 1.960 1.670  2.250 1.000 1.00000 1.960 1.000      8.271  23.000
 1511 1.920 1.634  2.206 1.000 1.00000 1.920 1.000      1.881  23.000
 1512 1.930 1.643  2.217 1.000 1.00000 1.930 1.000      5.345  23.000
 1513 1.920 1.634  2.206 1.000 1.00000 1.920 1.000      0.442  23.000
 1514 1.930 1.643  2.217 1.000 1.00000 1.930 1.000      6.342  23.000
 1515 1.960 1.670  2.250 1.000 1.00000 1.960 1.000     70.819  23.000
 1516 1.920 1.634  2.206 1.000 1.00000 1.920 1.000      0.413  23.000
 1517 1.920 1.634  2.206 1.000 1.00000 1.920 1.000      0.328  23.000
 1518 1.920 1.634  2.206 1.000 1.00000 1.920 1.000      0.538  23.000
 1519 1.920 1.634  2.206 1.000 1.00000 1.920 1.000      2.026  23.000
 1520 1.930 1.643  2.217 1.000 1.00000 1.930 1.000      3.645  23.000
 1521 1.960 1.670  2.250 1.000 1.00000 1.960 1.000      8.408  23.000
 1522 1.960 1.670  2.250 1.000 1.00000 1.960 1.000     18.525  23.000
 1523 1.960 1.670  2.250 1.000 1.00000 1.960 1.000      8.173  23.000
 1524 1.930 1.643  2.217 1.000 1.00000 1.930 1.000      3.786  23.000
 1525 1.960 1.670  2.250 1.000 1.00000 1.960 1.000      9.969  23.000
 1526 1.960 1.670  2.250 1.000 1.00000 1.960 1.000      7.830  23.000
 1527 1.920 1.634  2.206 1.000 1.00000 1.920 1.000      0.436  23.000
 1528 1.960 1.670  2.250 1.000 1.00000 1.960 1.000     14.421  23.000
 1529 1.960 1.670  2.250 1.000 1.00000 1.960 1.000     10.245  23.000
 1530 1.930 1.643  2.217 1.000 1.00000 1.930 1.000      2.190  23.000
 1531 1.960 1.670  2.250 1.000 1.00000 1.960 1.000     13.247  23.000
 1532 1.920 1.634  2.206 1.000 1.00000 1.920 1.000      0.336  23.000
 1533 1.960 1.670  2.250 1.000 1.00000 1.960 1.000     11.056  23.000
 1534 1.920 1.634  2.206 1.000 1.00000 1.920 1.000      0.515  23.000
 1535 1.960 1.670  2.250 1.000 1.00000 1.960 1.000      8.081  23.000
 1536 1.930 1.643  2.217 1.000 1.00000 1.930 1.000      6.897  23.000
 1537 1.920 1.634  2.206 1.000 1.00000 1.920 1.000      1.647  23.000
 1538 1.960 1.670  2.250 1.000 1.00000 1.960 1.000     15.047  23.000
 1539 1.960 1.670  2.250 1.000 1.00000 1.960 1.000     27.674  23.000
 1540 1.920 1.634  2.206 1.000 1.00000 1.920 1.000      1.762  23.000
 1541 1.920 1.634  2.206 1.000 1.00000 1.920 1.000      0.436  23.000
 1542 1.930 1.643  2.217 1.000 1.00000 1.930 1.000      7.019  23.000
 1543 1.920 1.634  2.206 1.000 1.00000 1.920 1.000      0.314  23.000
 1544 1.960 1.670  2.250 1.000 1.00000 1.960 1.000      7.698  23.000
 1545 1.960 1.670  2.250 1.000 1.00000 1.960 1.000      8.444  23.000
 1546 1.960 1.670  2.250 1.000 1.00000 1.960 1.000      7.768  23.000
 1547 1.920 1.634  2.206 1.000 1.00000 1.920 1.000      0.384  23.000
 1548 1.920 1.634  2.206 1.000 1.00000 1.920 1.000      0.355  23.000
 1549 1.920 1.634  2.206 1.000 1.00000 1.920 1.000      0.333  23.000
 1550 1.920 1.634  2.206 1.000 1.00000 1.920 1.000      0.342  23.000
 1551 1.930 1.643  2.217 1.000 1.00000 1.930 1.000      6.188  23.000
 1552 1.960 1.670  2.250 1.000 1.00000 1.960 1.000     19.083  23.000
 1553 1.960 1.670  2.250 1.000 1.00000 1.960 1.000      9.314  23.000
 1554 1.960 1.670  2.250 1.000 1.00000 1.960 1.000      8.142  23.000
 1555 1.960 1.670  2.250 1.000 1.00000 1.960 1.000      8.111  23.000
 1556 1.960 1.670  2.250 1.000 1.00000 1.960 1.000     14.203  23.000
 1557 1.930 1.643  2.217 1.000 1.00000 1.930 1.000      5.451  23.000
 1558 1.960 1.670  2.250 1.000 1.00000 1.960 1.000     13.327  23.000
 1559 1.930 1.643  2.217 1.000 1.00000 1.930 1.000      3.114  23.000
 1560 1.930 1.643  2.217 1.000 1.00000 1.930 1.000      4.703  23.000
 1561 1.920 1.634  2.206 1.000 1.00000 1.920 1.000      1.685  23.000
 1562 1.920 1.634  2.206 1.000 1.00000 1.920 1.000      0.309  23.000
 1563 1.920 1.634  2.206 1.000 1.00000 1.920 1.000      0.424  23.000
 1564 1.960 1.670  2.250 1.000 1.00000 1.960 1.000      7.744  23.000
 1565 1.920 1.634  2.206 1.000 1.00000 1.920 1.000      0.493  23.000
 1566 1.920 1.634  2.206 1.000 1.00000 1.920 1.000      0.375  23.000
 1567 1.920 1.634  2.206 1.000 1.00000 1.920 1.000      1.704  23.000
 1568 1.930 1.643  2.217 1.000 1.00000 1.930 1.000      5.739  23.000
 1569 1.930 1.643  2.217 1.000 1.00000 1.930 1.000      2.230  23.000
 1570 1.920 1.634  2.206 1.000 1.00000 1.920 1.000      0.375  23.000
 1571 1.920 1.634  2.206 1.000 1.00000 1.920 1.000      1.018  23.000
 1572 1.920 1.634  2.206 1.000 1.00000 1.920 1.000      0.339  23.000
 1573 1.960 1.670  2.250 1.000 1.00000 1.960 1.000      8.305  23.000
 1574 1.960 1.670  2.250 1.000 1.00000 1.960 1.000     16.281  23.000
 1575 1.920 1.634  2.206 1.000 1.00000 1.920 1.000      0.375  23.000
 1576 1.960 1.670  2.250 1.000 1.00000 1.960 1.000     17.397  23.000
 1577 1.920 1.634  2.206 1.000 1.00000 1.920 1.000      0.307  23.000
 1578 1.920 1.634  2.206 1.000 1.00000 1.920 1.000      0.436  23.000
 1579 1.920 1.634  2.206 1.000 1.00000 1.920 1.000      1.450  23.000
 1580 1.950 1.661  2.239 1.000 1.00000 1.960 1.000      7.432  23.000
 1581 1.960 1.670  2.250 1.000 1.00000 1.960 1.000     15.093  23.000
 1582 1.960 1.670  2.250 1.000 1.00000 1.960 1.000      7.533  23.000
 1583 1.960 1.670  2.250 1.000 1.00000 1.960 1.000      7.768  23.000
 1584 1.960 1.670  2.250 1.000 1.00000 1.960 1.000     11.448  23.000
 1585 1.920 1.634  2.206 1.000 1.00000 1.920 1.000      1.555  23.000
 1586 1.960 1.670  2.250 1.000 1.00000 1.960 1.000     12.216  23.000
 1587 1.960 1.670  2.250 1.000 1.00000 1.960 1.000     12.777  23.000
 1588 1.960 1.670  2.250 1.000 1.00000 1.960 1.000     12.700  23.000
 1589 1.960 1.670  2.250 1.000 1.00000 1.960 1.000     12.738  23.000
 1590 1.960 1.670  2.250 1.000 1.00000 1.960 1.000     12.700  23.000
 1591 1.920 1.634  2.206 1.000 1.00000 1.920 1.000      0.424  23.000
 1592 1.930 1.643  2.217 1.000 1.00000 1.930 1.000      2.416  23.000
 1593 1.920 1.634  2.206 1.000 1.00000 1.920 1.000      1.032  23.000
 1594 1.920 1.634  2.206 1.000 1.00000 1.920 1.000      0.544  23.000
 1595 1.960 1.670  2.250 1.000 1.00000 1.960 1.000      8.288  23.000
 1596 1.920 1.634  2.206 1.000 1.00000 1.920 1.000      0.729  23.000
 1597 1.920 1.634  2.206 1.000 1.00000 1.920 1.000      0.840  23.000
 1598 1.960 1.670  2.250 1.000 1.00000 1.960 1.000     10.388  23.000
 1599 1.920 1.634  2.206 1.000 1.00000 1.920 1.000      0.336  23.000
 1600 1.930 1.643  2.217 1.000 1.00000 1.930 1.000      6.303  23.000
 1601 1.940 1.652  2.228 1.000 1.00000 1.930 1.000      7.394  23.000
 1602 1.960 1.670  2.250 1.000 1.00000 1.960 1.000      8.189  23.000
 1603 1.930 1.643  2.217 1.000 1.00000 1.930 1.000      2.568  23.000
 1604 1.920 1.634  2.206 1.000 1.00000 1.920 1.000      1.087  23.000
 1605 1.930 1.643  2.217 1.000 1.00000 1.930 1.000      3.064  23.000
 1606 1.960 1.670  2.250 1.000 1.00000 1.960 1.000      9.267  23.000
 1607 1.920 1.634  2.206 1.000 1.00000 1.920 1.000      0.348  23.000
 1608 1.930 1.643  2.217 1.000 1.00000 1.930 1.000      3.114  23.000
 1609 1.960 1.670  2.250 1.000 1.00000 1.960 1.000      7.709  23.000
 1610 1.930 1.643  2.217 1.000 1.00000 1.930 1.000      6.656  23.000
 1611 1.930 1.643  2.217 1.000 1.00000 1.930 1.000      4.900  23.000
 1612 1.930 1.643  2.217 1.000 1.00000 1.930 1.000      6.695  23.000
 1613 1.930 1.643  2.217 1.000 1.00000 1.930 1.000      7.226  23.000
 1614 1.920 1.634  2.206 1.000 1.00000 1.930 1.000      2.131  23.000
 1615 1.960 1.670  2.250 1.000 1.00000 1.960 1.000     17.873  23.000
 1616 1.950 1.661  2.239 1.000 1.00000 1.960 1.000      7.439  23.000
 1617 1.920 1.634  2.206 1.000 1.00000 1.920 1.000      1.102  23.000
 1618 1.930 1.643  2.217 1.000 1.00000 1.930 1.000      4.606  23.000
 1619 1.950 1.661  2.239 1.000 1.00000 1.960 1.000      7.463  23.000
 1620 1.960 1.670  2.250 1.000 1.00000 1.960 1.000     14.290  23.000
 1621 1.960 1.670  2.250 1.000 1.00000 1.960 1.000      7.611  23.000
 1622 1.960 1.670  2.250 1.000 1.00000 1.960 1.000      9.291  23.000
 1623 1.960 1.670  2.250 1.000 1.00000 1.960 1.000     19.713  23.000
 1624 1.960 1.670  2.250 1.000 1.00000 1.960 1.000     12.000  23.000
 1625 1.920 1.634  2.206 1.000 1.00000 1.920 1.000      1.365  23.000
 1626 1.930 1.643  2.217 1.000 1.00000 1.930 1.000      5.594  23.000
 1627 1.960 1.670  2.250 1.000 1.00000 1.960 1.000      8.173  23.000
 1628 1.930 1.643  2.217 1.000 1.00000 1.930 1.000      6.458  23.000
 1629 1.920 1.634  2.206 1.000 1.00000 1.920 1.000      0.321  23.000
 1630 1.930 1.643  2.217 1.000 1.00000 1.930 1.000      2.190  23.000
 1631 1.930 1.643  2.217 1.000 1.00000 1.930 1.000      2.210  23.000
 1632 1.960 1.670  2.250 1.000 1.00000 1.960 1.000      8.339  23.000
 1633 1.920 1.634  2.206 1.000 1.00000 1.920 1.000      0.359  23.000
 1634 1.960 1.670  2.250 1.000 1.00000 1.960 1.000     12.970  23.000
 1635 1.960 1.670  2.250 1.000 1.00000 1.960 1.000     23.047  23.000
 1636 1.920 1.634  2.206 1.000 1.00000 1.920 1.000      0.319  23.000
 1637 1.920 1.634  2.206 1.000 1.00000 1.920 1.000      0.398  23.000
 1638 1.930 1.643  2.217 1.000 1.00000 1.930 1.000      6.150  23.000
 1639 1.930 1.643  2.217 1.000 1.00000 1.930 1.000      4.230  23.000
 1640 1.930 1.643  2.217 1.000 1.00000 1.930 1.000      4.322  23.000
 1641 1.930 1.643  2.217 1.000 1.00000 1.930 1.000      4.447  23.000
 1642 1.920 1.634  2.206 1.000 1.00000 1.920 1.000      1.762  23.000
 1643 1.920 1.634  2.206 1.000 1.00000 1.920 1.000      0.926  23.000
 1644 1.960 1.670  2.250 1.000 1.00000 1.960 1.000      9.020  23.000
 1645 1.920 1.634  2.206 1.000 1.00000 1.920 1.000      0.562  23.000
 1646 1.960 1.670  2.250 1.000 1.00000 1.960 1.000     33.763  23.000
 1647 1.960 1.670  2.250 1.000 1.00000 1.960 1.000     13.821  23.000
 1648 1.960 1.670  2.250 1.000 1.00000 1.960 1.000     14.775  23.000
 1649 1.920 1.634  2.206 1.000 1.00000 1.920 1.000      0.304  23.000
 1650 1.960 1.670  2.250 1.000 1.00000 1.960 1.000      7.506  23.000
 1651 1.960 1.670  2.250 1.000 1.00000 1.960 1.000      8.850  23.000
 1652 1.920 1.634  2.206 1.000 1.00000 1.920 1.000      0.544  23.000
 1653 1.920 1.634  2.206 1.000 1.00000 1.920 1.000      0.622  23.000
 1654 1.960 1.670  2.250 1.000 1.00000 1.960 1.000      7.756  23.000
 1655 1.930 1.643  2.217 1.000 1.00000 1.930 1.000      5.850  23.000
 1656 1.960 1.670  2.250 1.000 1.00000 1.960 1.000      8.036  23.000
 1657 1.920 1.634  2.206 1.000 1.00000 1.920 1.000      0.852  23.000
 1658 1.920 1.634  2.206 1.000 1.00000 1.920 1.000      1.592  23.000
 1659 1.960 1.670  2.250 1.000 1.00000 1.960 1.000      7.664  23.000
 1660 1.920 1.634  2.206 1.000 1.00000 1.920 1.000      0.333  23.000
 1661 1.930 1.643  2.217 1.000 1.00000 1.930 1.000      7.019  23.000
 1662 1.960 1.670  2.250 1.000 1.00000 1.960 1.000     10.775  23.000
 1663 1.920 1.634  2.206 1.000 1.00000 1.920 1.000      0.304  23.000
 1664 1.920 1.634  2.206 1.000 1.00000 1.920 1.000      0.419  23.000
 1665 1.960 1.670  2.250 1.000 1.00000 1.960 1.000      8.426  23.000
 1666 1.920 1.634  2.206 1.000 1.00000 1.920 1.000      0.913  23.000
 1667 1.920 1.634  2.206 1.000 1.00000 1.920 1.000      0.817  23.000
 1668 1.920 1.634  2.206 1.000 1.00000 1.920 1.000      0.323  23.000
 1669 1.960 1.670  2.250 1.000 1.00000 1.960 1.000      8.065  23.000
 1670 1.920 1.634  2.206 1.000 1.00000 1.920 1.000      2.026  23.000
 1671 1.920 1.634  2.206 1.000 1.00000 1.920 1.000      1.861  23.000
 1672 1.920 1.634  2.206 1.000 1.00000 1.920 1.000      0.304  23.000
 1673 1.960 1.670  2.250 1.000 1.00000 1.960 1.000      7.653  23.000
 1674 1.930 1.643  2.217 1.000 1.00000 1.930 1.000      3.508  23.000
 1675 1.930 1.643  2.217 1.000 1.00000 1.930 1.000      5.275  23.000
 1676 1.920 1.634  2.206 1.000 1.00000 1.920 1.000      0.688  23.000
 1677 1.920 1.634  2.206 1.000 1.00000 1.920 1.000      1.365  23.000
 1678 1.930 1.643  2.217 1.000 1.00000 1.930 1.000      6.036  23.000
 1679 1.960 1.670  2.250 1.000 1.00000 1.960 1.000     17.241  23.000
 1680 1.960 1.670  2.250 1.000 1.00000 1.960 1.000      7.698  23.000
 1681 1.920 1.634  2.206 1.000 1.00000 1.920 1.000      0.501  23.000
 1682 1.960 1.670  2.250 1.000 1.00000 1.960 1.000      8.554  23.000
 1683 1.920 1.634  2.206 1.000 1.00000 1.920 1.000      1.415  23.000
 1684 1.930 1.643  2.217 1.000 1.00000 1.930 1.000      2.965  23.000
 1685 1.920 1.634  2.206 1.000 1.00000 1.920 1.000      0.978  23.000
 1686 1.930 1.643  2.217 1.000 1.00000 1.930 1.000      7.143  23.000
 1687 1.920 1.634  2.206 1.000 1.00000 1.920 1.000      0.304  23.000
 1688 1.960 1.670  2.250 1.000 1.00000 1.960 1.000      9.385  23.000
 1689 1.920 1.634  2.206 1.000 1.00000 1.920 1.000      0.367  23.000
 1690 1.920 1.634  2.206 1.000 1.00000 1.920 1.000      0.901  23.000
 1691 1.920 1.634  2.206 1.000 1.00000 1.920 1.000      1.073  23.000
 1692 1.940 1.652  2.228 1.000 1.00000 1.930 1.000      7.309  23.000
 1693 1.930 1.643  2.217 1.000 1.00000 1.930 1.000      6.419  23.000
 1694 1.960 1.670  2.250 1.000 1.00000 1.960 1.000     10.534  23.000
 1695 1.930 1.643  2.217 1.000 1.00000 1.930 1.000      6.735  23.000
 1696 1.920 1.634  2.206 1.000 1.00000 1.920 1.000      0.666  23.000
 1697 1.960 1.670  2.250 1.000 1.00000 1.960 1.000     11.024  23.000
 1698 1.920 1.634  2.206 1.000 1.00000 1.920 1.000      0.913  23.000
 1699 1.920 1.634  2.206 1.000 1.00000 1.920 1.000      0.389  23.000
 1700 1.960 1.670  2.250 1.000 1.00000 1.960 1.000      8.748  23.000
 1701 1.920 1.634  2.206 1.000 1.00000 1.920 1.000      0.430  23.000
 1702 1.920 1.634  2.206 1.000 1.00000 1.920 1.000      1.610  23.000
 1703 1.960 1.670  2.250 1.000 1.00000 1.960 1.000     13.531  23.000
 1704 1.930 1.643  2.217 1.000 1.00000 1.930 1.000      3.931  23.000
 1705 1.960 1.670  2.250 1.000 1.00000 1.960 1.000      8.271  23.000
 1706 1.920 1.634  2.206 1.000 1.00000 1.920 1.000      0.467  23.000
 1707 1.960 1.670  2.250 1.000 1.00000 1.960 1.000     13.207  23.000
 1708 1.920 1.634  2.206 1.000 1.00000 1.920 1.000      1.502  23.000
 1709 1.920 1.634  2.206 1.000 1.00000 1.920 1.000      0.613  23.000
 1710 1.930 1.643  2.217 1.000 1.00000 1.930 1.000      5.487  23.000
 1711 1.920 1.634  2.206 1.000 1.00000 1.920 1.000      0.515  23.000
 1712 1.960 1.670  2.250 1.000 1.00000 1.960 1.000      8.254  23.000
 1713 1.960 1.670  2.250 1.000 1.00000 1.960 1.000      8.222  23.000
 1714 1.930 1.643  2.217 1.000 1.00000 1.930 1.000      2.481  23.000
 1715 1.920 1.634  2.206 1.000 1.00000 1.920 1.000      1.555  23.000
 1716 1.930 1.643  2.217 1.000 1.00000 1.930 1.000      2.502  23.000
 1717 1.920 1.634  2.206 1.000 1.00000 1.920 1.000      1.537  23.000
 1718 1.930 1.643  2.217 1.000 1.00000 1.930 1.000      6.498  23.000
 1719 1.920 1.634  2.206 1.000 1.00000 1.920 1.000      0.631  23.000
 1720 1.960 1.670  2.250 1.000 1.00000 1.960 1.000     16.629  23.000
 1721 1.930 1.643  2.217 1.000 1.00000 1.930 1.000      3.165  23.000
 1722 1.920 1.634  2.206 1.000 1.00000 1.920 1.000      0.952  23.000
 1723 1.960 1.670  2.250 1.000 1.00000 1.960 1.000      8.592  23.000
 1724 1.920 1.634  2.206 1.000 1.00000 1.920 1.000      0.325  23.000
 1725 1.930 1.643  2.217 1.000 1.00000 1.930 1.000      3.990  23.000
 1726 1.920 1.634  2.206 1.000 1.00000 1.920 1.000      0.640  23.000
 1727 1.920 1.634  2.206 1.000 1.00000 1.920 1.000      0.348  23.000
 1728 1.960 1.670  2.250 1.000 1.00000 1.960 1.000     12.738  23.000
 1729 1.930 1.643  2.217 1.000 1.00000 1.930 1.000      3.758  23.000
 1730 1.920 1.634  2.206 1.000 1.00000 1.920 1.000      0.487  23.000
 1731 1.930 1.643  2.217 1.000 1.00000 1.930 1.000      2.892  23.000
 1732 1.930 1.643  2.217 1.000 1.00000 1.930 1.000      2.727  23.000
 1733 1.930 1.643  2.217 1.000 1.00000 1.930 1.000      2.210  23.000
 1734 1.920 1.634  2.206 1.000 1.00000 1.920 1.000      1.801  23.000
 1735 1.930 1.643  2.217 1.000 1.00000 1.930 1.000      2.395  23.000
 1736 1.930 1.643  2.217 1.000 1.00000 1.930 1.000      3.844  23.000
 1737 1.920 1.634  2.206 1.000 1.00000 1.920 1.000      0.413  23.000
 1738 1.960 1.670  2.250 1.000 1.00000 1.960 1.000     15.370  23.000
 1739 1.920 1.634  2.206 1.000 1.00000 1.920 1.000      0.604  23.000
 1740 1.920 1.634  2.206 1.000 1.00000 1.920 1.000      0.375  23.000
 1741 1.960 1.670  2.250 1.000 1.00000 1.960 1.000     18.197  23.000
 1742 1.960 1.670  2.250 1.000 1.00000 1.960 1.000     20.241  23.000
 1743 1.960 1.670  2.250 1.000 1.00000 1.960 1.000     14.820  23.000
 1744 1.920 1.634  2.206 1.000 1.00000 1.920 1.000      0.669  23.000
 1745 1.930 1.643  2.217 1.000 1.00000 1.930 1.000      3.242  23.000
 1746 1.920 1.634  2.206 1.000 1.00000 1.920 1.000      1.629  23.000
 1747 1.920 1.634  2.206 1.000 1.00000 1.920 1.000      0.355  23.000
 1748 1.960 1.670  2.250 1.000 1.00000 1.960 1.000      7.843  23.000
 1749 1.930 1.643  2.217 1.000 1.00000 1.930 1.000      3.590  23.000
 1750 1.930 1.643  2.217 1.000 1.00000 1.930 1.000      6.695  23.000
 1751 1.960 1.670  2.250 1.000 1.00000 1.960 1.000      8.111  23.000
 1752 1.960 1.670  2.250 1.000 1.00000 1.960 1.000     75.351  23.000
 1753 1.920 1.634  2.206 1.000 1.00000 1.920 1.000      1.116  23.000
 1754 1.920 1.634  2.206 1.000 1.00000 1.920 1.000      1.922  23.000
 1755 1.920 1.634  2.206 1.000 1.00000 1.920 1.000      1.145  23.000
 1756 1.960 1.670  2.250 1.000 1.00000 1.960 1.000      8.748  23.000
 1757 1.930 1.643  2.217 1.000 1.00000 1.930 1.000      3.701  23.000
 1758 1.920 1.634  2.206 1.000 1.00000 1.920 1.000      0.657  23.000
 1759 1.920 1.634  2.206 1.000 1.00000 1.920 1.000      0.719  23.000
 1760 1.920 1.634  2.206 1.000 1.00000 1.920 1.000      2.112  23.000
 1761 1.930 1.643  2.217 1.000 1.00000 1.930 1.000      5.558  23.000
 1762 1.920 1.634  2.206 1.000 1.00000 1.920 1.000      1.647  23.000
 1763 1.960 1.670  2.250 1.000 1.00000 1.960 1.000      7.552  23.000
 1764 1.940 1.652  2.228 1.000 1.00000 1.930 1.000      7.394  23.000
 1765 1.930 1.643  2.217 1.000 1.00000 1.930 1.000      2.750  23.000
 1766 1.930 1.643  2.217 1.000 1.00000 1.930 1.000      3.039  23.000
 1767 1.920 1.634  2.206 1.000 1.00000 1.920 1.000      0.736  23.000
 1768 1.960 1.670  2.250 1.000 1.00000 1.960 1.000     19.424  23.000
 1769 1.960 1.670  2.250 1.000 1.00000 1.960 1.000      7.843  23.000
 1770 1.920 1.634  2.206 1.000 1.00000 1.920 1.000      0.414  23.000
 1771 1.930 1.643  2.217 1.000 1.00000 1.930 1.000      2.658  23.000
 1772 1.920 1.634  2.206 1.000 1.00000 1.920 1.000      1.432  23.000
 1773 1.960 1.670  2.250 1.000 1.00000 1.960 1.000     10.775  23.000
 1774 1.930 1.643  2.217 1.000 1.00000 1.930 1.000      4.934  23.000
 1775 1.930 1.643  2.217 1.000 1.00000 1.930 1.000      6.776  23.000
 1776 1.930 1.643  2.217 1.000 1.00000 1.930 1.000      5.416  23.000
 1777 1.960 1.670  2.250 1.000 1.00000 1.960 1.000     14.820  23.000
 1778 1.960 1.670  2.250 1.000 1.00000 1.960 1.000      7.543  23.000
 1779 1.960 1.670  2.250 1.000 1.00000 1.960 1.000     12.107  23.000
 1780 1.920 1.634  2.206 1.000 1.00000 1.920 1.000      1.300  23.000
 1781 1.920 1.634  2.206 1.000 1.00000 1.920 1.000      0.408  23.000
 1782 1.930 1.643  2.217 1.000 1.00000 1.930 1.000      3.535  23.000
 1783 1.960 1.670  2.250 1.000 1.00000 1.960 1.000      8.768  23.000
 1784 1.920 1.634  2.206 1.000 1.00000 1.920 1.000      0.840  23.000
 1785 1.930 1.643  2.217 1.000 1.00000 1.930 1.000      2.170  23.000
 1786 1.920 1.634  2.206 1.000 1.00000 1.920 1.000      1.018  23.000
 1787 1.960 1.670  2.250 1.000 1.00000 1.960 1.000     10.161  23.000
 1788 1.920 1.634  2.206 1.000 1.00000 1.920 1.000      0.657  23.000
 1789 1.930 1.643  2.217 1.000 1.00000 1.930 1.000      2.658  23.000
 1790 1.960 1.670  2.250 1.000 1.00000 1.960 1.000     10.417  23.000
 1791 1.920 1.634  2.206 1.000 1.00000 1.920 1.000      0.920  23.000
 1792 1.920 1.634  2.206 1.000 1.00000 1.930 1.000      2.131  23.000
 1793 1.960 1.670  2.250 1.000 1.00000 1.960 1.000     20.241  23.000
 1794 1.920 1.634  2.206 1.000 1.00000 1.920 1.000      1.004  23.000
 1795 1.920 1.634  2.206 1.000 1.00000 1.920 1.000      0.530  23.000
 1796 1.960 1.670  2.250 1.000 1.00000 1.960 1.000      8.081  23.000
 1797 1.920 1.634  2.206 1.000 1.00000 1.920 1.000      0.546  23.000
 1798 1.920 1.634  2.206 1.000 1.00000 1.920 1.000      1.284  23.000
 1799 1.960 1.670  2.250 1.000 1.00000 1.960 1.000     10.417  23.000
 1800 1.920 1.634  2.206 1.000 1.00000 1.920 1.000      0.413  23.000
