## File LOS/SB2_B2004a_2.4z_Mags_1300.bpz  Sat Aug 13 01:33:10 2016
##
##Parameters used to run BPZ:
##
##AB_DIR=/home/lidenscheng/bpz-1.99.3//AB/
##ADD_CONTINUOUS_PROB=None
##ADD_SPEC_PROB=None
##CHECK=LOS/SB2_B2004a_2.4z_Mags_1300.flux_comparison
##COLOR=no
##COLUMNS=losNoErrors.columns
##CONVOLVE_P=yes
##DELTA_M_0=0.0
##DZ=0.01
##EXCLUDE=none
##FC=None
##FILTER_DIR=/home/lidenscheng/MK_DirectSim/filters/
##GET_Z=yes
##INPUT=LOS/SB2_B2004a_2.4z_Mags_1300.txt
##INTERACTIVE=yes
##INTERP=0
##MADAU=no
##MAG=yes
##MEAN_IGM=yes
##MERGE_PEAKS=no
##MIN_MAGERR=0.001
##MIN_RMS=0.05
##NEW_AB=no
##NMAX=None
##NTYPES=None
##N_PEAKS=1
##ODDS=0.95
##ONLY_TYPE=no
##OUTPUT=LOS/SB2_B2004a_2.4z_Mags_1300.bpz
##PHOTO_ERRORS=no
##PLOTS=no
##PRIOR=none
##PROBS=no
##PROBS2=no
##PROBS_LITE=LOS/SB2_B2004a_2.4z_Mags_1300.probs
##P_MIN=0.01
##SED_DIR=/home/lidenscheng/MK_DirectSim/SEDs/
##SPECTRA=SB2.list
##VERBOSE=yes
##ZC=None
##ZMAX=10.0
##ZMIN=0.01
##ZP_OFFSETS=0.0
##Z_THR=0
##
##Column information
##
# 1 ID
# 2 Z_B
# 3 Z_B_MIN
# 4 Z_B_MAX
# 5 T_B
# 6 ODDS    
# 7 Z_ML
# 8 T_ML
# 9 CHI-SQUARED
# 10 M_0
##
    1 2.360 2.031  2.689 1.000 1.00000 2.350 1.000      5.309  23.000
    2 2.370 2.040  2.700 1.000 1.00000 2.380 1.000      0.814  23.000
    3 2.450 2.112  2.788 1.000 1.00000 2.450 1.000      2.518  23.000
    4 2.440 2.103  2.777 1.000 1.00000 2.440 1.000      2.059  23.000
    5 2.530 2.184  2.876 1.000 1.00000 2.540 1.000      8.967  23.000
    6 2.440 2.103  2.777 1.000 1.00000 2.440 1.000      1.739  23.000
    7 2.620 2.265  2.975 1.000 1.00000 2.620 1.000     28.883  23.000
    8 2.560 2.211  2.909 1.000 1.00000 2.560 1.000     20.527  23.000
    9 2.410 2.076  2.744 1.000 1.00000 2.410 1.000      1.411  23.000
   10 2.460 2.121  2.799 1.000 1.00000 2.450 1.000      1.685  23.000
   11 2.370 2.040  2.700 1.000 1.00000 2.360 1.000      1.283  23.000
   12 2.440 2.103  2.777 1.000 1.00000 2.440 1.000      2.366  23.000
   13 2.410 2.076  2.744 1.000 1.00000 2.410 1.000      0.301  23.000
   14 2.530 2.184  2.876 1.000 1.00000 2.540 1.000      6.529  23.000
   15 2.460 2.121  2.799 1.000 1.00000 2.450 1.000      1.895  23.000
   16 2.380 2.049  2.711 1.000 1.00000 2.380 1.000      0.810  23.000
   17 2.380 2.049  2.711 1.000 1.00000 2.380 1.000      0.770  23.000
   18 2.540 2.193  2.887 1.000 1.00000 2.540 1.000     14.643  23.000
   19 2.350 2.022  2.678 1.000 1.00000 2.350 1.000      3.788  23.000
   20 2.450 2.112  2.788 1.000 1.00000 2.450 1.000      2.867  23.000
   21 2.470 2.130  2.810 1.000 1.00000 2.470 1.000      3.950  23.000
   22 2.490 2.148  2.832 1.000 1.00000 2.490 1.000      4.347  23.000
   23 2.420 2.085  2.755 1.000 1.00000 2.420 1.000      0.623  23.000
   24 2.370 2.040  2.700 1.000 1.00000 2.370 1.000      1.532  23.000
   25 2.390 2.058  2.722 1.000 1.00000 2.390 1.000      1.045  23.000
   26 2.400 2.067  2.733 1.000 1.00000 2.400 1.000      0.201  23.000
   27 2.390 2.058  2.722 1.000 1.00000 2.390 1.000      0.220  23.000
   28 2.390 2.058  2.722 1.000 1.00000 2.390 1.000      0.318  23.000
   29 2.420 2.085  2.755 1.000 1.00000 2.430 1.000      0.563  23.000
   30 2.460 2.121  2.799 1.000 1.00000 2.470 1.000      4.650  23.000
   31 2.350 2.022  2.678 1.000 1.00000 2.350 1.000      3.550  23.000
   32 2.610 2.256  2.964 1.000 1.00000 2.610 1.000     29.090  23.000
   33 2.340 2.013  2.667 1.000 1.00000 2.340 1.000      3.484  23.000
   34 2.560 2.211  2.909 1.000 1.00000 2.560 1.000     17.423  23.000
   35 2.490 2.148  2.832 1.000 1.00000 2.480 1.000     11.230  23.000
   36 2.380 2.049  2.711 1.000 1.00000 2.380 1.000      2.971  23.000
   37 2.430 2.094  2.766 1.000 1.00000 2.440 1.000      0.905  23.000
   38 2.480 2.139  2.821 1.000 1.00000 2.480 1.000      8.114  23.000
   39 2.430 2.094  2.766 1.000 1.00000 2.430 1.000      0.845  23.000
   40 2.470 2.130  2.810 1.000 1.00000 2.470 1.000      4.605  23.000
   41 2.440 2.103  2.777 1.000 1.00000 2.440 1.000      1.982  23.000
   42 2.430 2.094  2.766 1.000 1.00000 2.430 1.000      0.629  23.000
   43 2.540 2.193  2.887 1.000 1.00000 2.540 1.000      6.791  23.000
   44 2.440 2.103  2.777 1.000 1.00000 2.440 1.000      2.458  23.000
   45 2.380 2.049  2.711 1.000 1.00000 2.380 1.000      0.689  23.000
   46 2.430 2.094  2.766 1.000 1.00000 2.430 1.000      0.911  23.000
   47 2.490 2.148  2.832 1.000 1.00000 2.490 1.000     10.179  23.000
   48 2.370 2.040  2.700 1.000 1.00000 2.370 1.000      1.150  23.000
   49 2.620 2.265  2.975 1.000 1.00000 2.620 1.000     23.823  23.000
   50 2.440 2.103  2.777 1.000 1.00000 2.440 1.000      1.469  23.000
   51 2.400 2.067  2.733 1.000 1.00000 2.400 1.000      1.415  23.000
   52 2.460 2.121  2.799 1.000 1.00000 2.450 1.000      3.521  23.000
   53 2.460 2.121  2.799 1.000 1.00000 2.450 1.000      3.408  23.000
   54 2.380 2.049  2.711 1.000 1.00000 2.380 1.000      0.958  23.000
   55 2.430 2.094  2.766 1.000 1.00000 2.430 1.000      0.691  23.000
   56 2.360 2.031  2.689 1.000 1.00000 2.350 1.000      5.316  23.000
   57 2.420 2.085  2.755 1.000 1.00000 2.420 1.000      0.763  23.000
   58 2.470 2.130  2.810 1.000 1.00000 2.470 1.000      5.785  23.000
   59 2.400 2.067  2.733 1.000 1.00000 2.400 1.000      0.285  23.000
   60 2.570 2.220  2.920 1.000 1.00000 2.570 1.000     24.534  23.000
   61 2.410 2.076  2.744 1.000 1.00000 2.410 1.000      0.506  23.000
   62 2.460 2.121  2.799 1.000 1.00000 2.450 1.000      3.018  23.000
   63 2.460 2.121  2.799 1.000 1.00000 2.470 1.000      2.279  23.000
   64 2.450 2.112  2.788 1.000 1.00000 2.450 1.000      2.591  23.000
   65 2.330 2.004  2.656 1.000 1.00000 2.330 1.000     17.558  23.000
   66 2.530 2.184  2.876 1.000 1.00000 2.530 1.000      8.121  23.000
   67 2.450 2.112  2.788 1.000 1.00000 2.450 1.000      2.105  23.000
   68 2.380 2.049  2.711 1.000 1.00000 2.380 1.000      0.512  23.000
   69 2.420 2.085  2.755 1.000 1.00000 2.410 1.000      1.658  23.000
   70 2.560 2.211  2.909 1.000 1.00000 2.560 1.000     21.716  23.000
   71 2.540 2.193  2.887 1.000 1.00000 2.540 1.000     16.428  23.000
   72 2.430 2.094  2.766 1.000 1.00000 2.440 1.000      1.158  23.000
   73 2.430 2.094  2.766 1.000 1.00000 2.440 1.000      0.858  23.000
   74 2.460 2.121  2.799 1.000 1.00000 2.470 1.000      3.369  23.000
   75 2.580 2.229  2.931 1.000 1.00000 2.580 1.000     15.818  23.000
   76 2.400 2.067  2.733 1.000 1.00000 2.400 1.000      0.319  23.000
   77 2.440 2.103  2.777 1.000 1.00000 2.440 1.000      1.811  23.000
   78 2.570 2.220  2.920 1.000 1.00000 2.570 1.000     19.385  23.000
   79 2.540 2.193  2.887 1.000 1.00000 2.540 1.000      7.483  23.000
   80 2.430 2.094  2.766 1.000 1.00000 2.430 1.000      0.605  23.000
   81 2.480 2.139  2.821 1.000 1.00000 2.480 1.000      6.850  23.000
   82 2.450 2.112  2.788 1.000 1.00000 2.450 1.000      3.356  23.000
   83 2.470 2.130  2.810 1.000 1.00000 2.470 1.000      2.814  23.000
   84 2.540 2.193  2.887 1.000 1.00000 2.540 1.000     12.902  23.000
   85 2.600 2.247  2.953 1.000 1.00000 2.590 1.000     20.666  23.000
   86 2.490 2.148  2.832 1.000 1.00000 2.490 1.000      5.513  23.000
   87 2.490 2.148  2.832 1.000 1.00000 2.480 1.000      9.521  23.000
   88 2.360 2.031  2.689 1.000 1.00000 2.350 1.000      2.799  23.000
   89 2.360 2.031  2.689 1.000 1.00000 2.350 1.000      2.705  23.000
   90 2.540 2.193  2.887 1.000 1.00000 2.540 1.000     14.348  23.000
   91 2.490 2.148  2.832 1.000 1.00000 2.480 1.000      5.975  23.000
   92 2.540 2.193  2.887 1.000 1.00000 2.540 1.000     14.188  23.000
   93 2.420 2.085  2.755 1.000 1.00000 2.430 1.000      0.565  23.000
   94 2.540 2.193  2.887 1.000 1.00000 2.540 1.000     15.615  23.000
   95 2.480 2.139  2.821 1.000 1.00000 2.480 1.000      3.924  23.000
   96 2.450 2.112  2.788 1.000 1.00000 2.450 1.000      1.909  23.000
   97 2.350 2.022  2.678 1.000 1.00000 2.350 1.000      7.464  23.000
   98 2.450 2.112  2.788 1.000 1.00000 2.450 1.000      2.060  23.000
   99 2.560 2.211  2.909 1.000 1.00000 2.560 1.000     19.583  23.000
  100 2.360 2.031  2.689 1.000 1.00000 2.360 1.000      2.356  23.000
  101 2.410 2.076  2.744 1.000 1.00000 2.410 1.000      0.457  23.000
  102 2.540 2.193  2.887 1.000 1.00000 2.540 1.000     13.264  23.000
  103 2.450 2.112  2.788 1.000 1.00000 2.450 1.000      4.268  23.000
  104 2.410 2.076  2.744 1.000 1.00000 2.410 1.000      0.331  23.000
  105 2.580 2.229  2.931 1.000 1.00000 2.580 1.000     22.259  23.000
  106 2.450 2.112  2.788 1.000 1.00000 2.440 1.000      4.029  23.000
  107 2.390 2.058  2.722 1.000 1.00000 2.390 1.000      0.451  23.000
  108 2.350 2.022  2.678 1.000 1.00000 2.350 1.000      4.867  23.000
  109 2.440 2.103  2.777 1.000 1.00000 2.440 1.000      1.857  23.000
  110 2.540 2.193  2.887 1.000 1.00000 2.540 1.000      8.862  23.000
  111 2.470 2.130  2.810 1.000 1.00000 2.470 1.000      6.480  23.000
  112 2.350 2.022  2.678 1.000 1.00000 2.350 1.000      6.895  23.000
  113 2.470 2.130  2.810 1.000 1.00000 2.470 1.000      4.572  23.000
  114 2.540 2.193  2.887 1.000 1.00000 2.540 1.000     16.014  23.000
  115 2.400 2.067  2.733 1.000 1.00000 2.400 1.000      1.026  23.000
  116 2.440 2.103  2.777 1.000 1.00000 2.440 1.000      1.124  23.000
  117 2.440 2.103  2.777 1.000 1.00000 2.440 1.000      2.973  23.000
  118 2.430 2.094  2.766 1.000 1.00000 2.440 1.000      1.045  23.000
  119 2.450 2.112  2.788 1.000 1.00000 2.450 1.000      1.149  23.000
  120 2.540 2.193  2.887 1.000 1.00000 2.540 1.000      8.915  23.000
  121 2.380 2.049  2.711 1.000 1.00000 2.380 1.000      2.015  23.000
  122 2.370 2.040  2.700 1.000 1.00000 2.360 1.000      2.162  23.000
  123 2.540 2.193  2.887 1.000 1.00000 2.540 1.000      8.346  23.000
  124 2.540 2.193  2.887 1.000 1.00000 2.540 1.000     15.838  23.000
  125 2.430 2.094  2.766 1.000 1.00000 2.440 1.000      1.057  23.000
  126 2.480 2.139  2.821 1.000 1.00000 2.480 1.000      7.962  23.000
  127 2.490 2.148  2.832 1.000 1.00000 2.480 1.000      5.925  23.000
  128 2.340 2.013  2.667 1.000 1.00000 2.340 1.000      7.175  23.000
  129 2.420 2.085  2.755 1.000 1.00000 2.410 1.000      0.923  23.000
  130 2.370 2.040  2.700 1.000 1.00000 2.360 1.000      1.858  23.000
  131 2.430 2.094  2.766 1.000 1.00000 2.440 1.000      0.817  23.000
  132 2.490 2.148  2.832 1.000 1.00000 2.480 1.000      8.469  23.000
  133 2.470 2.130  2.810 1.000 1.00000 2.470 1.000      4.104  23.000
  134 2.530 2.184  2.876 1.000 1.00000 2.530 1.000     12.838  23.000
  135 2.410 2.076  2.744 1.000 1.00000 2.410 1.000      0.361  23.000
  136 2.430 2.094  2.766 1.000 1.00000 2.430 1.000      1.488  23.000
  137 2.460 2.121  2.799 1.000 1.00000 2.450 1.000      5.164  23.000
  138 2.420 2.085  2.755 1.000 1.00000 2.430 1.000      1.084  23.000
  139 2.540 2.193  2.887 1.000 1.00000 2.540 1.000      6.560  23.000
  140 2.420 2.085  2.755 1.000 1.00000 2.420 1.000      0.811  23.000
  141 2.380 2.049  2.711 1.000 1.00000 2.380 1.000      1.065  23.000
  142 2.340 2.013  2.667 1.000 1.00000 2.340 1.000      5.343  23.000
  143 2.450 2.112  2.788 1.000 1.00000 2.450 1.000      1.786  23.000
  144 2.450 2.112  2.788 1.000 1.00000 2.450 1.000      2.490  23.000
  145 2.400 2.067  2.733 1.000 1.00000 2.400 1.000      0.353  23.000
  146 2.410 2.076  2.744 1.000 1.00000 2.410 1.000      1.182  23.000
  147 2.550 2.202  2.898 1.000 1.00000 2.550 1.000     16.507  23.000
  148 2.460 2.121  2.799 1.000 1.00000 2.450 1.000      3.051  23.000
  149 2.390 2.058  2.722 1.000 1.00000 2.390 1.000      0.415  23.000
  150 2.470 2.130  2.810 1.000 1.00000 2.470 1.000      2.401  23.000
  151 2.380 2.049  2.711 1.000 1.00000 2.380 1.000      0.774  23.000
  152 2.390 2.058  2.722 1.000 1.00000 2.390 1.000      0.219  23.000
  153 2.340 2.013  2.667 1.000 1.00000 2.340 1.000      7.450  23.000
  154 2.410 2.076  2.744 1.000 1.00000 2.410 1.000      0.432  23.000
  155 2.560 2.211  2.909 1.000 1.00000 2.550 1.000     20.831  23.000
  156 2.400 2.067  2.733 1.000 1.00000 2.400 1.000      0.572  23.000
  157 2.500 2.157  2.843 1.000 1.00000 2.490 1.000      9.306  23.000
  158 2.440 2.103  2.777 1.000 1.00000 2.440 1.000      1.433  23.000
  159 2.460 2.121  2.799 1.000 1.00000 2.450 1.000      3.108  23.000
  160 2.350 2.022  2.678 1.000 1.00000 2.350 1.000      2.986  23.000
  161 2.450 2.112  2.788 1.000 1.00000 2.450 1.000      3.144  23.000
  162 2.360 2.031  2.689 1.000 1.00000 2.360 1.000      1.438  23.000
  163 2.490 2.148  2.832 1.000 1.00000 2.490 1.000      7.692  23.000
  164 2.460 2.121  2.799 1.000 1.00000 2.450 1.000      1.756  23.000
  165 2.430 2.094  2.766 1.000 1.00000 2.430 1.000      0.623  23.000
  166 2.350 2.022  2.678 1.000 1.00000 2.350 1.000      3.499  23.000
  167 2.480 2.139  2.821 1.000 1.00000 2.480 1.000      5.465  23.000
  168 2.570 2.220  2.920 1.000 1.00000 2.570 1.000     13.864  23.000
  169 2.390 2.058  2.722 1.000 1.00000 2.390 1.000      0.276  23.000
  170 2.560 2.211  2.909 1.000 1.00000 2.570 1.000     24.064  23.000
  171 2.380 2.049  2.711 1.000 1.00000 2.380 1.000      0.701  23.000
  172 2.380 2.049  2.711 1.000 1.00000 2.380 1.000      0.880  23.000
  173 2.420 2.085  2.755 1.000 1.00000 2.410 1.000      0.506  23.000
  174 2.360 2.031  2.689 1.000 1.00000 2.360 1.000      2.829  23.000
  175 2.450 2.112  2.788 1.000 1.00000 2.450 1.000      1.754  23.000
  176 2.450 2.112  2.788 1.000 1.00000 2.450 1.000      3.124  23.000
  177 2.440 2.103  2.777 1.000 1.00000 2.440 1.000      1.998  23.000
  178 2.470 2.130  2.810 1.000 1.00000 2.470 1.000      7.489  23.000
  179 2.610 2.256  2.964 1.000 1.00000 2.610 1.000     16.882  23.000
  180 2.450 2.112  2.788 1.000 1.00000 2.450 1.000      1.736  23.000
  181 2.470 2.130  2.810 1.000 1.00000 2.470 1.000      6.373  23.000
  182 2.450 2.112  2.788 1.000 1.00000 2.450 1.000      1.196  23.000
  183 2.490 2.148  2.832 1.000 1.00000 2.480 1.000      8.247  23.000
  184 2.450 2.112  2.788 1.000 1.00000 2.450 1.000      1.511  23.000
  185 2.410 2.076  2.744 1.000 1.00000 2.410 1.000      0.396  23.000
  186 2.370 2.040  2.700 1.000 1.00000 2.370 1.000      1.020  23.000
  187 2.540 2.193  2.887 1.000 1.00000 2.540 1.000     13.274  23.000
  188 2.460 2.121  2.799 1.000 1.00000 2.450 1.000      2.224  23.000
  189 2.430 2.094  2.766 1.000 1.00000 2.430 1.000      0.879  23.000
  190 2.540 2.193  2.887 1.000 1.00000 2.540 1.000      9.104  23.000
  191 2.410 2.076  2.744 1.000 1.00000 2.410 1.000      1.620  23.000
  192 2.480 2.139  2.821 1.000 1.00000 2.480 1.000      5.095  23.000
  193 2.390 2.058  2.722 1.000 1.00000 2.390 1.000      0.387  23.000
  194 2.590 2.238  2.942 1.000 1.00000 2.590 1.000     19.843  23.000
  195 2.480 2.139  2.821 1.000 1.00000 2.480 1.000      8.867  23.000
  196 2.350 2.022  2.678 1.000 1.00000 2.350 1.000      5.569  23.000
  197 2.470 2.130  2.810 1.000 1.00000 2.470 1.000      2.649  23.000
  198 2.380 2.049  2.711 1.000 1.00000 2.380 1.000      0.527  23.000
  199 2.530 2.184  2.876 1.000 1.00000 2.540 1.000     10.692  23.000
  200 2.440 2.103  2.777 1.000 1.00000 2.440 1.000      4.565  23.000
  201 2.360 2.031  2.689 1.000 1.00000 2.360 1.000      1.213  23.000
  202 2.450 2.112  2.788 1.000 1.00000 2.450 1.000      1.631  23.000
  203 2.540 2.193  2.887 1.000 1.00000 2.540 1.000      9.916  23.000
  204 2.340 2.013  2.667 1.000 1.00000 2.340 1.000      5.356  23.000
  205 2.390 2.058  2.722 1.000 1.00000 2.390 1.000      0.672  23.000
  206 2.540 2.193  2.887 1.000 1.00000 2.540 1.000     10.350  23.000
  207 2.540 2.193  2.887 1.000 1.00000 2.540 1.000      7.966  23.000
  208 2.420 2.085  2.755 1.000 1.00000 2.430 1.000      0.659  23.000
  209 2.540 2.193  2.887 1.000 1.00000 2.540 1.000     13.750  23.000
  210 2.390 2.058  2.722 1.000 1.00000 2.390 1.000      0.216  23.000
  211 2.540 2.193  2.887 1.000 1.00000 2.540 1.000     12.049  23.000
  212 2.400 2.067  2.733 1.000 1.00000 2.400 1.000      0.249  23.000
  213 2.380 2.049  2.711 1.000 1.00000 2.380 1.000      0.673  23.000
  214 2.540 2.193  2.887 1.000 1.00000 2.540 1.000     17.002  23.000
  215 2.390 2.058  2.722 1.000 1.00000 2.390 1.000      2.055  23.000
  216 2.560 2.211  2.909 1.000 1.00000 2.560 1.000     13.208  23.000
  217 2.540 2.193  2.887 1.000 1.00000 2.540 1.000     12.176  23.000
  218 2.450 2.112  2.788 1.000 1.00000 2.450 1.000      2.905  23.000
  219 2.470 2.130  2.810 1.000 1.00000 2.470 1.000      6.213  23.000
  220 2.370 2.040  2.700 1.000 1.00000 2.360 1.000      3.162  23.000
  221 2.480 2.139  2.821 1.000 1.00000 2.480 1.000      5.184  23.000
  222 2.420 2.085  2.755 1.000 1.00000 2.430 1.000      0.638  23.000
  223 2.470 2.130  2.810 1.000 1.00000 2.470 1.000      6.568  23.000
  224 2.560 2.211  2.909 1.000 1.00000 2.570 1.000     11.282  23.000
  225 2.480 2.139  2.821 1.000 1.00000 2.480 1.000      8.640  23.000
  226 2.380 2.049  2.711 1.000 1.00000 2.380 1.000      1.137  23.000
  227 2.430 2.094  2.766 1.000 1.00000 2.440 1.000      1.038  23.000
  228 2.420 2.085  2.755 1.000 1.00000 2.430 1.000      0.690  23.000
  229 2.460 2.121  2.799 1.000 1.00000 2.470 1.000      6.873  23.000
  230 2.590 2.238  2.942 1.000 1.00000 2.590 1.000     21.832  23.000
  231 2.420 2.085  2.755 1.000 1.00000 2.430 1.000      0.728  23.000
  232 2.390 2.058  2.722 1.000 1.00000 2.390 1.000      0.334  23.000
  233 2.360 2.031  2.689 1.000 1.00000 2.350 1.000      3.818  23.000
  234 2.550 2.202  2.898 1.000 1.00000 2.550 1.000      8.618  23.000
  235 2.540 2.193  2.887 1.000 1.00000 2.540 1.000     10.060  23.000
  236 2.520 2.175  2.865 1.000 1.00000 2.530 1.000     10.831  23.000
  237 2.430 2.094  2.766 1.000 1.00000 2.430 1.000      0.737  23.000
  238 2.450 2.112  2.788 1.000 1.00000 2.450 1.000      2.462  23.000
  239 2.440 2.103  2.777 1.000 1.00000 2.440 1.000      1.975  23.000
  240 2.400 2.067  2.733 1.000 1.00000 2.400 1.000      0.238  23.000
  241 2.470 2.130  2.810 1.000 1.00000 2.470 1.000      5.178  23.000
  242 2.480 2.139  2.821 1.000 1.00000 2.480 1.000      2.616  23.000
  243 2.430 2.094  2.766 1.000 1.00000 2.430 1.000      0.810  23.000
  244 2.440 2.103  2.777 1.000 1.00000 2.440 1.000      1.697  23.000
  245 2.570 2.220  2.920 1.000 1.00000 2.570 1.000     24.267  23.000
  246 2.480 2.139  2.821 1.000 1.00000 2.480 1.000      4.888  23.000
  247 2.440 2.103  2.777 1.000 1.00000 2.440 1.000      1.057  23.000
  248 2.340 2.013  2.667 1.000 1.00000 2.340 1.000      4.002  23.000
  249 2.540 2.193  2.887 1.000 1.00000 2.540 1.000     10.068  23.000
  250 2.480 2.139  2.821 1.000 1.00000 2.480 1.000      8.785  23.000
  251 2.340 2.013  2.667 1.000 1.00000 2.340 1.000      7.999  23.000
  252 2.430 2.094  2.766 1.000 1.00000 2.440 1.000      0.922  23.000
  253 2.390 2.058  2.722 1.000 1.00000 2.390 1.000      2.804  23.000
  254 2.460 2.121  2.799 1.000 1.00000 2.450 1.000      2.602  23.000
  255 2.440 2.103  2.777 1.000 1.00000 2.440 1.000      2.519  23.000
  256 2.440 2.103  2.777 1.000 1.00000 2.440 1.000      2.515  23.000
  257 2.460 2.121  2.799 1.000 1.00000 2.450 1.000      4.001  23.000
  258 2.370 2.040  2.700 1.000 1.00000 2.380 1.000      0.781  23.000
  259 2.450 2.112  2.788 1.000 1.00000 2.450 1.000      2.521  23.000
  260 2.580 2.229  2.931 1.000 1.00000 2.580 1.000     25.481  23.000
  261 2.540 2.193  2.887 1.000 1.00000 2.540 1.000     10.736  23.000
  262 2.370 2.040  2.700 1.000 1.00000 2.360 1.000      2.234  23.000
  263 2.470 2.130  2.810 1.000 1.00000 2.470 1.000      3.783  23.000
  264 2.490 2.148  2.832 1.000 1.00000 2.480 1.000      9.101  23.000
  265 2.530 2.184  2.876 1.000 1.00000 2.530 1.000     11.333  23.000
  266 2.350 2.022  2.678 1.000 1.00000 2.340 1.000      3.650  23.000
  267 2.350 2.022  2.678 1.000 1.00000 2.350 1.000      2.959  23.000
  268 2.480 2.139  2.821 1.000 1.00000 2.480 1.000      5.894  23.000
  269 2.400 2.067  2.733 1.000 1.00000 2.400 1.000      0.239  23.000
  270 2.340 2.013  2.667 1.000 1.00000 2.340 1.000      6.311  23.000
  271 2.350 2.022  2.678 1.000 1.00000 2.340 1.000      3.981  23.000
  272 2.460 2.121  2.799 1.000 1.00000 2.450 1.000      2.994  23.000
  273 2.390 2.058  2.722 1.000 1.00000 2.390 1.000      1.199  23.000
  274 2.340 2.013  2.667 1.000 1.00000 2.340 1.000      5.137  23.000
  275 2.450 2.112  2.788 1.000 1.00000 2.450 1.000      2.798  23.000
  276 2.440 2.103  2.777 1.000 1.00000 2.440 1.000      2.513  23.000
  277 2.440 2.103  2.777 1.000 1.00000 2.440 1.000      1.437  23.000
  278 2.490 2.148  2.832 1.000 1.00000 2.480 1.000     10.283  23.000
  279 2.410 2.076  2.744 1.000 1.00000 2.410 1.000      0.554  23.000
  280 2.450 2.112  2.788 1.000 1.00000 2.450 1.000      4.086  23.000
  281 2.430 2.094  2.766 1.000 1.00000 2.440 1.000      1.303  23.000
  282 2.470 2.130  2.810 1.000 1.00000 2.480 1.000      4.578  23.000
  283 2.540 2.193  2.887 1.000 1.00000 2.540 1.000     10.613  23.000
  284 2.460 2.121  2.799 1.000 1.00000 2.450 1.000      2.188  23.000
  285 2.540 2.193  2.887 1.000 1.00000 2.540 1.000     11.147  23.000
  286 2.380 2.049  2.711 1.000 1.00000 2.380 1.000      0.448  23.000
  287 2.490 2.148  2.832 1.000 1.00000 2.480 1.000      7.263  23.000
  288 2.480 2.139  2.821 1.000 1.00000 2.480 1.000      7.778  23.000
  289 2.540 2.193  2.887 1.000 1.00000 2.540 1.000      7.806  23.000
  290 2.340 2.013  2.667 1.000 1.00000 2.340 1.000      5.498  23.000
  291 2.510 2.166  2.854 1.000 1.00000 2.530 1.000     10.430  23.000
  292 2.490 2.148  2.832 1.000 1.00000 2.490 1.000      7.038  23.000
  293 2.360 2.031  2.689 1.000 1.00000 2.350 1.000      2.745  23.000
  294 2.540 2.193  2.887 1.000 1.00000 2.540 1.000      9.205  23.000
  295 2.390 2.058  2.722 1.000 1.00000 2.390 1.000      0.504  23.000
  296 2.400 2.067  2.733 1.000 1.00000 2.400 1.000      0.531  23.000
  297 2.530 2.184  2.876 1.000 1.00000 2.530 1.000      8.296  23.000
  298 2.540 2.193  2.887 1.000 1.00000 2.540 1.000      6.993  23.000
  299 2.470 2.130  2.810 1.000 1.00000 2.470 1.000      7.170  23.000
  300 2.360 2.031  2.689 1.000 1.00000 2.350 1.000      5.931  23.000
  301 2.400 2.067  2.733 1.000 1.00000 2.400 1.000      0.266  23.000
  302 2.490 2.148  2.832 1.000 1.00000 2.480 1.000      8.582  23.000
  303 2.430 2.094  2.766 1.000 1.00000 2.440 1.000      0.811  23.000
  304 2.470 2.130  2.810 1.000 1.00000 2.470 1.000      6.526  23.000
  305 2.350 2.022  2.678 1.000 1.00000 2.350 1.000      4.591  23.000
  306 2.370 2.040  2.700 1.000 1.00000 2.360 1.000      2.103  23.000
  307 2.430 2.094  2.766 1.000 1.00000 2.440 1.000      0.800  23.000
  308 2.560 2.211  2.909 1.000 1.00000 2.550 1.000     10.696  23.000
  309 2.470 2.130  2.810 1.000 1.00000 2.470 1.000      7.978  23.000
  310 2.340 2.013  2.667 1.000 1.00000 2.340 1.000      4.327  23.000
  311 2.360 2.031  2.689 1.000 1.00000 2.360 1.000      1.205  23.000
  312 2.350 2.022  2.678 1.000 1.00000 2.350 1.000      4.071  23.000
  313 2.530 2.184  2.876 1.000 1.00000 2.540 1.000     10.748  23.000
  314 2.400 2.067  2.733 1.000 1.00000 2.400 1.000      0.313  23.000
  315 2.530 2.184  2.876 1.000 1.00000 2.540 1.000      8.115  23.000
  316 2.440 2.103  2.777 1.000 1.00000 2.440 1.000      1.814  23.000
  317 2.420 2.085  2.755 1.000 1.00000 2.410 1.000      1.139  23.000
  318 2.400 2.067  2.733 1.000 1.00000 2.400 1.000      1.029  23.000
  319 2.400 2.067  2.733 1.000 1.00000 2.400 1.000      1.028  23.000
  320 2.360 2.031  2.689 1.000 1.00000 2.360 1.000      2.210  23.000
  321 2.440 2.103  2.777 1.000 1.00000 2.440 1.000      1.837  23.000
  322 2.420 2.085  2.755 1.000 1.00000 2.430 1.000      0.716  23.000
  323 2.430 2.094  2.766 1.000 1.00000 2.430 1.000      0.763  23.000
  324 2.550 2.202  2.898 1.000 1.00000 2.540 1.000     16.375  23.000
  325 2.450 2.112  2.788 1.000 1.00000 2.450 1.000      2.736  23.000
  326 2.340 2.013  2.667 1.000 1.00000 2.340 1.000      9.103  23.000
  327 2.430 2.094  2.766 1.000 1.00000 2.430 1.000      1.382  23.000
  328 2.380 2.049  2.711 1.000 1.00000 2.380 1.000      1.296  23.000
  329 2.450 2.112  2.788 1.000 1.00000 2.450 1.000      3.528  23.000
  330 2.540 2.193  2.887 1.000 1.00000 2.540 1.000     16.053  23.000
  331 2.440 2.103  2.777 1.000 1.00000 2.440 1.000      1.117  23.000
  332 2.360 2.031  2.689 1.000 1.00000 2.360 1.000      2.057  23.000
  333 2.420 2.085  2.755 1.000 1.00000 2.410 1.000      0.443  23.000
  334 2.330 2.004  2.656 1.000 1.00000 2.340 1.000      6.531  23.000
  335 2.430 2.094  2.766 1.000 1.00000 2.430 1.000      0.667  23.000
  336 2.430 2.094  2.766 1.000 1.00000 2.430 1.000      0.894  23.000
  337 2.460 2.121  2.799 1.000 1.00000 2.450 1.000      2.540  23.000
  338 2.440 2.103  2.777 1.000 1.00000 2.440 1.000      2.390  23.000
  339 2.470 2.130  2.810 1.000 1.00000 2.470 1.000      4.867  23.000
  340 2.360 2.031  2.689 1.000 1.00000 2.360 1.000      1.905  23.000
  341 2.370 2.040  2.700 1.000 1.00000 2.370 1.000      2.461  23.000
  342 2.440 2.103  2.777 1.000 1.00000 2.440 1.000      1.537  23.000
  343 2.360 2.031  2.689 1.000 1.00000 2.360 1.000      1.548  23.000
  344 2.430 2.094  2.766 1.000 1.00000 2.440 1.000      0.950  23.000
  345 2.490 2.148  2.832 1.000 1.00000 2.490 1.000      6.441  23.000
  346 2.390 2.058  2.722 1.000 1.00000 2.390 1.000      0.216  23.000
  347 2.420 2.085  2.755 1.000 1.00000 2.410 1.000      0.514  23.000
  348 2.460 2.121  2.799 1.000 1.00000 2.450 1.000      4.303  23.000
  349 2.390 2.058  2.722 1.000 1.00000 2.390 1.000      0.360  23.000
  350 2.380 2.049  2.711 1.000 1.00000 2.380 1.000      0.687  23.000
  351 2.470 2.130  2.810 1.000 1.00000 2.470 1.000      5.500  23.000
  352 2.350 2.022  2.678 1.000 1.00000 2.350 1.000      7.151  23.000
  353 2.350 2.022  2.678 1.000 1.00000 2.350 1.000      4.745  23.000
  354 2.400 2.067  2.733 1.000 1.00000 2.400 1.000      0.682  23.000
  355 2.480 2.139  2.821 1.000 1.00000 2.480 1.000      3.891  23.000
  356 2.420 2.085  2.755 1.000 1.00000 2.410 1.000      0.628  23.000
  357 2.470 2.130  2.810 1.000 1.00000 2.470 1.000      7.556  23.000
  358 2.420 2.085  2.755 1.000 1.00000 2.430 1.000      0.546  23.000
  359 2.590 2.238  2.942 1.000 1.00000 2.590 1.000     20.648  23.000
  360 2.540 2.193  2.887 1.000 1.00000 2.540 1.000      8.011  23.000
  361 2.450 2.112  2.788 1.000 1.00000 2.450 1.000      3.917  23.000
  362 2.580 2.229  2.931 1.000 1.00000 2.580 1.000     20.168  23.000
  363 2.400 2.067  2.733 1.000 1.00000 2.400 1.000      0.198  23.000
  364 2.340 2.013  2.667 1.000 1.00000 2.340 1.000      9.001  23.000
  365 2.430 2.094  2.766 1.000 1.00000 2.440 1.000      2.165  23.000
  366 2.360 2.031  2.689 1.000 1.00000 2.360 1.000      1.721  23.000
  367 2.390 2.058  2.722 1.000 1.00000 2.390 1.000      0.362  23.000
  368 2.540 2.193  2.887 1.000 1.00000 2.540 1.000     13.831  23.000
  369 2.430 2.094  2.766 1.000 1.00000 2.440 1.000      0.813  23.000
  370 2.450 2.112  2.788 1.000 1.00000 2.450 1.000      2.404  23.000
  371 2.460 2.121  2.799 1.000 1.00000 2.450 1.000      3.283  23.000
  372 2.450 2.112  2.788 1.000 1.00000 2.450 1.000      3.654  23.000
  373 2.470 2.130  2.810 1.000 1.00000 2.470 1.000      4.622  23.000
  374 2.540 2.193  2.887 1.000 1.00000 2.540 1.000      7.255  23.000
  375 2.490 2.148  2.832 1.000 1.00000 2.480 1.000      9.556  23.000
  376 2.440 2.103  2.777 1.000 1.00000 2.440 1.000      1.929  23.000
  377 2.450 2.112  2.788 1.000 1.00000 2.450 1.000      4.924  23.000
  378 2.430 2.094  2.766 1.000 1.00000 2.430 1.000      0.630  23.000
  379 2.410 2.076  2.744 1.000 1.00000 2.400 1.000      0.338  23.000
  380 2.450 2.112  2.788 1.000 1.00000 2.450 1.000      1.939  23.000
  381 2.390 2.058  2.722 1.000 1.00000 2.390 1.000      0.267  23.000
  382 2.410 2.076  2.744 1.000 1.00000 2.410 1.000      0.368  23.000
  383 2.340 2.013  2.667 1.000 1.00000 2.340 1.000      8.681  23.000
  384 2.450 2.112  2.788 1.000 1.00000 2.450 1.000      4.231  23.000
  385 2.540 2.193  2.887 1.000 1.00000 2.540 1.000      8.511  23.000
  386 2.390 2.058  2.722 1.000 1.00000 2.390 1.000      0.664  23.000
  387 2.450 2.112  2.788 1.000 1.00000 2.450 1.000      2.584  23.000
  388 2.400 2.067  2.733 1.000 1.00000 2.400 1.000      0.449  23.000
  389 2.440 2.103  2.777 1.000 1.00000 2.450 1.000      1.878  23.000
  390 2.400 2.067  2.733 1.000 1.00000 2.400 1.000      0.244  23.000
  391 2.470 2.130  2.810 1.000 1.00000 2.470 1.000      6.411  23.000
  392 2.410 2.076  2.744 1.000 1.00000 2.410 1.000      0.301  23.000
  393 2.440 2.103  2.777 1.000 1.00000 2.440 1.000      1.434  23.000
  394 2.390 2.058  2.722 1.000 1.00000 2.390 1.000      0.530  23.000
  395 2.430 2.094  2.766 1.000 1.00000 2.440 1.000      1.252  23.000
  396 2.450 2.112  2.788 1.000 1.00000 2.450 1.000      1.931  23.000
  397 2.480 2.139  2.821 1.000 1.00000 2.480 1.000      4.216  23.000
  398 2.460 2.121  2.799 1.000 1.00000 2.470 1.000      4.493  23.000
  399 2.410 2.076  2.744 1.000 1.00000 2.410 1.000      0.308  23.000
  400 2.360 2.031  2.689 1.000 1.00000 2.360 1.000      1.628  23.000
  401 2.420 2.085  2.755 1.000 1.00000 2.410 1.000      0.828  23.000
  402 2.450 2.112  2.788 1.000 1.00000 2.450 1.000      2.739  23.000
  403 2.540 2.193  2.887 1.000 1.00000 2.540 1.000     13.566  23.000
  404 2.480 2.139  2.821 1.000 1.00000 2.480 1.000      5.712  23.000
  405 2.630 2.274  2.986 1.000 1.00000 2.630 1.000     25.634  23.000
  406 2.400 2.067  2.733 1.000 1.00000 2.400 1.000      0.246  23.000
  407 2.460 2.121  2.799 1.000 1.00000 2.450 1.000      5.413  23.000
  408 2.410 2.076  2.744 1.000 1.00000 2.410 1.000      0.360  23.000
  409 2.410 2.076  2.744 1.000 1.00000 2.400 1.000      0.282  23.000
  410 2.450 2.112  2.788 1.000 1.00000 2.450 1.000      4.800  23.000
  411 2.630 2.274  2.986 1.000 1.00000 2.630 1.000     25.858  23.000
  412 2.570 2.220  2.920 1.000 1.00000 2.570 1.000     15.895  23.000
  413 2.380 2.049  2.711 1.000 1.00000 2.380 1.000      1.480  23.000
  414 2.400 2.067  2.733 1.000 1.00000 2.400 1.000      0.308  23.000
  415 2.400 2.067  2.733 1.000 1.00000 2.400 1.000      0.291  23.000
  416 2.450 2.112  2.788 1.000 1.00000 2.450 1.000      3.945  23.000
  417 2.350 2.022  2.678 1.000 1.00000 2.350 1.000      5.061  23.000
  418 2.610 2.256  2.964 1.000 1.00000 2.610 1.000     21.257  23.000
  419 2.370 2.040  2.700 1.000 1.00000 2.360 1.000      2.361  23.000
  420 2.540 2.193  2.887 1.000 1.00000 2.540 1.000     13.250  23.000
  421 2.420 2.085  2.755 1.000 1.00000 2.410 1.000      0.571  23.000
  422 2.450 2.112  2.788 1.000 1.00000 2.450 1.000      2.425  23.000
  423 2.430 2.094  2.766 1.000 1.00000 2.440 1.000      0.808  23.000
  424 2.430 2.094  2.766 1.000 1.00000 2.440 1.000      1.113  23.000
  425 2.470 2.130  2.810 1.000 1.00000 2.470 1.000      5.425  23.000
  426 2.380 2.049  2.711 1.000 1.00000 2.380 1.000      0.819  23.000
  427 2.440 2.103  2.777 1.000 1.00000 2.440 1.000      2.808  23.000
  428 2.480 2.139  2.821 1.000 1.00000 2.480 1.000      7.176  23.000
  429 2.440 2.103  2.777 1.000 1.00000 2.440 1.000      2.416  23.000
  430 2.430 2.094  2.766 1.000 1.00000 2.430 1.000      0.709  23.000
  431 2.400 2.067  2.733 1.000 1.00000 2.400 1.000      0.211  23.000
  432 2.440 2.103  2.777 1.000 1.00000 2.440 1.000      3.235  23.000
  433 2.340 2.013  2.667 1.000 1.00000 2.340 1.000      5.531  23.000
  434 2.350 2.022  2.678 1.000 1.00000 2.350 1.000      3.211  23.000
  435 2.460 2.121  2.799 1.000 1.00000 2.450 1.000      3.283  23.000
  436 2.400 2.067  2.733 1.000 1.00000 2.400 1.000      0.967  23.000
  437 2.370 2.040  2.700 1.000 1.00000 2.360 1.000      2.558  23.000
  438 2.460 2.121  2.799 1.000 1.00000 2.450 1.000      3.123  23.000
  439 2.410 2.076  2.744 1.000 1.00000 2.410 1.000      0.419  23.000
  440 2.400 2.067  2.733 1.000 1.00000 2.400 1.000      0.219  23.000
  441 2.440 2.103  2.777 1.000 1.00000 2.440 1.000      2.381  23.000
  442 2.460 2.121  2.799 1.000 1.00000 2.450 1.000      2.153  23.000
  443 2.530 2.184  2.876 1.000 1.00000 2.530 1.000     12.137  23.000
  444 2.360 2.031  2.689 1.000 1.00000 2.360 1.000      1.767  23.000
  445 2.360 2.031  2.689 1.000 1.00000 2.360 1.000      2.521  23.000
  446 2.540 2.193  2.887 1.000 1.00000 2.540 1.000     10.958  23.000
  447 2.390 2.058  2.722 1.000 1.00000 2.390 1.000      1.202  23.000
  448 2.470 2.130  2.810 1.000 1.00000 2.470 1.000      4.502  23.000
  449 2.460 2.121  2.799 1.000 1.00000 2.450 1.000      3.823  23.000
  450 2.370 2.040  2.700 1.000 1.00000 2.370 1.000      1.464  23.000
  451 2.580 2.229  2.931 1.000 1.00000 2.580 1.000     12.371  23.000
  452 2.540 2.193  2.887 1.000 1.00000 2.540 1.000     11.329  23.000
  453 2.470 2.130  2.810 1.000 1.00000 2.470 1.000      4.429  23.000
  454 2.540 2.193  2.887 1.000 1.00000 2.540 1.000      8.928  23.000
  455 2.560 2.211  2.909 1.000 1.00000 2.560 1.000     20.213  23.000
  456 2.410 2.076  2.744 1.000 1.00000 2.410 1.000      0.669  23.000
  457 2.440 2.103  2.777 1.000 1.00000 2.440 1.000      1.620  23.000
  458 2.580 2.229  2.931 1.000 1.00000 2.580 1.000     22.176  23.000
  459 2.370 2.040  2.700 1.000 1.00000 2.370 1.000      0.828  23.000
  460 2.400 2.067  2.733 1.000 1.00000 2.400 1.000      2.509  23.000
  461 2.400 2.067  2.733 1.000 1.00000 2.400 1.000      0.683  23.000
  462 2.540 2.193  2.887 1.000 1.00000 2.540 1.000     14.080  23.000
  463 2.370 2.040  2.700 1.000 1.00000 2.360 1.000      1.315  23.000
  464 2.360 2.031  2.689 1.000 1.00000 2.360 1.000      2.505  23.000
  465 2.400 2.067  2.733 1.000 1.00000 2.400 1.000      0.281  23.000
  466 2.460 2.121  2.799 1.000 1.00000 2.450 1.000      3.301  23.000
  467 2.380 2.049  2.711 1.000 1.00000 2.390 1.000      0.612  23.000
  468 2.490 2.148  2.832 1.000 1.00000 2.480 1.000      9.064  23.000
  469 2.470 2.130  2.810 1.000 1.00000 2.470 1.000      4.082  23.000
  470 2.410 2.076  2.744 1.000 1.00000 2.410 1.000      0.440  23.000
  471 2.570 2.220  2.920 1.000 1.00000 2.570 1.000     20.637  23.000
  472 2.460 2.121  2.799 1.000 1.00000 2.470 1.000      5.652  23.000
  473 2.360 2.031  2.689 1.000 1.00000 2.360 1.000      1.565  23.000
  474 2.570 2.220  2.920 1.000 1.00000 2.570 1.000     23.159  23.000
  475 2.570 2.220  2.920 1.000 1.00000 2.570 1.000     22.767  23.000
  476 2.460 2.121  2.799 1.000 1.00000 2.450 1.000      4.244  23.000
  477 2.540 2.193  2.887 1.000 1.00000 2.540 1.000     12.520  23.000
  478 2.560 2.211  2.909 1.000 1.00000 2.550 1.000     17.234  23.000
  479 2.450 2.112  2.788 1.000 1.00000 2.440 1.000      4.311  23.000
  480 2.410 2.076  2.744 1.000 1.00000 2.410 1.000      1.178  23.000
  481 2.390 2.058  2.722 1.000 1.00000 2.390 1.000      0.364  23.000
  482 2.420 2.085  2.755 1.000 1.00000 2.430 1.000      0.541  23.000
  483 2.400 2.067  2.733 1.000 1.00000 2.400 1.000      0.396  23.000
  484 2.540 2.193  2.887 1.000 1.00000 2.540 1.000     15.508  23.000
  485 2.400 2.067  2.733 1.000 1.00000 2.400 1.000      0.629  23.000
  486 2.450 2.112  2.788 1.000 1.00000 2.450 1.000      3.280  23.000
  487 2.530 2.184  2.876 1.000 1.00000 2.540 1.000      9.596  23.000
  488 2.360 2.031  2.689 1.000 1.00000 2.350 1.000      3.701  23.000
  489 2.450 2.112  2.788 1.000 1.00000 2.450 1.000      4.221  23.000
  490 2.540 2.193  2.887 1.000 1.00000 2.540 1.000     15.906  23.000
  491 2.380 2.049  2.711 1.000 1.00000 2.380 1.000      0.687  23.000
  492 2.440 2.103  2.777 1.000 1.00000 2.440 1.000      2.243  23.000
  493 2.390 2.058  2.722 1.000 1.00000 2.390 1.000      0.739  23.000
  494 2.390 2.058  2.722 1.000 1.00000 2.390 1.000      0.763  23.000
  495 2.540 2.193  2.887 1.000 1.00000 2.540 1.000     10.270  23.000
  496 2.540 2.193  2.887 1.000 1.00000 2.540 1.000      9.447  23.000
  497 2.470 2.130  2.810 1.000 1.00000 2.480 1.000      5.518  23.000
  498 2.380 2.049  2.711 1.000 1.00000 2.380 1.000      1.457  23.000
  499 2.430 2.094  2.766 1.000 1.00000 2.440 1.000      0.839  23.000
  500 2.430 2.094  2.766 1.000 1.00000 2.430 1.000      0.990  23.000
  501 2.410 2.076  2.744 1.000 1.00000 2.410 1.000      0.336  23.000
  502 2.450 2.112  2.788 1.000 1.00000 2.450 1.000      3.276  23.000
  503 2.560 2.211  2.909 1.000 1.00000 2.550 1.000     19.903  23.000
  504 2.430 2.094  2.766 1.000 1.00000 2.430 1.000      1.486  23.000
  505 2.470 2.130  2.810 1.000 1.00000 2.470 1.000      6.858  23.000
  506 2.460 2.121  2.799 1.000 1.00000 2.450 1.000      1.970  23.000
  507 2.480 2.139  2.821 1.000 1.00000 2.480 1.000      5.541  23.000
  508 2.470 2.130  2.810 1.000 1.00000 2.470 1.000      2.039  23.000
  509 2.620 2.265  2.975 1.000 1.00000 2.620 1.000     28.887  23.000
  510 2.430 2.094  2.766 1.000 1.00000 2.430 1.000      0.947  23.000
  511 2.440 2.103  2.777 1.000 1.00000 2.440 1.000      1.834  23.000
  512 2.370 2.040  2.700 1.000 1.00000 2.360 1.000      1.005  23.000
  513 2.410 2.076  2.744 1.000 1.00000 2.410 1.000      0.330  23.000
  514 2.620 2.265  2.975 1.000 1.00000 2.620 1.000     27.054  23.000
  515 2.360 2.031  2.689 1.000 1.00000 2.360 1.000      1.394  23.000
  516 2.540 2.193  2.887 1.000 1.00000 2.540 1.000     10.507  23.000
  517 2.410 2.076  2.744 1.000 1.00000 2.410 1.000      4.094  23.000
  518 2.480 2.139  2.821 1.000 1.00000 2.480 1.000      8.454  23.000
  519 2.630 2.274  2.986 1.000 1.00000 2.630 1.000     17.734  23.000
  520 2.410 2.076  2.744 1.000 1.00000 2.410 1.000      1.289  23.000
  521 2.440 2.103  2.777 1.000 1.00000 2.440 1.000      1.702  23.000
  522 2.490 2.148  2.832 1.000 1.00000 2.480 1.000      5.818  23.000
  523 2.340 2.013  2.667 1.000 1.00000 2.340 1.000      7.527  23.000
  524 2.380 2.049  2.711 1.000 1.00000 2.390 1.000      0.618  23.000
  525 2.570 2.220  2.920 1.000 1.00000 2.570 1.000     21.719  23.000
  526 2.400 2.067  2.733 1.000 1.00000 2.400 1.000      1.596  23.000
  527 2.360 2.031  2.689 1.000 1.00000 2.350 1.000      8.459  23.000
  528 2.400 2.067  2.733 1.000 1.00000 2.400 1.000      0.216  23.000
  529 2.570 2.220  2.920 1.000 1.00000 2.570 1.000     20.620  23.000
  530 2.420 2.085  2.755 1.000 1.00000 2.430 1.000      0.801  23.000
  531 2.360 2.031  2.689 1.000 1.00000 2.360 1.000      3.427  23.000
  532 2.460 2.121  2.799 1.000 1.00000 2.450 1.000      4.950  23.000
  533 2.350 2.022  2.678 1.000 1.00000 2.350 1.000      3.207  23.000
  534 2.470 2.130  2.810 1.000 1.00000 2.470 1.000      4.653  23.000
  535 2.370 2.040  2.700 1.000 1.00000 2.360 1.000      1.162  23.000
  536 2.440 2.103  2.777 1.000 1.00000 2.440 1.000      2.278  23.000
  537 2.430 2.094  2.766 1.000 1.00000 2.440 1.000      1.518  23.000
  538 2.520 2.175  2.865 1.000 1.00000 2.530 1.000     10.363  23.000
  539 2.460 2.121  2.799 1.000 1.00000 2.450 1.000      2.080  23.000
  540 2.460 2.121  2.799 1.000 1.00000 2.470 1.000      5.817  23.000
  541 2.420 2.085  2.755 1.000 1.00000 2.430 1.000      0.700  23.000
  542 2.540 2.193  2.887 1.000 1.00000 2.540 1.000     17.081  23.000
  543 2.430 2.094  2.766 1.000 1.00000 2.430 1.000      0.653  23.000
  544 2.380 2.049  2.711 1.000 1.00000 2.380 1.000      0.469  23.000
  545 2.340 2.013  2.667 1.000 1.00000 2.340 1.000      4.375  23.000
  546 2.350 2.022  2.678 1.000 1.00000 2.350 1.000      3.295  23.000
  547 2.480 2.139  2.821 1.000 1.00000 2.480 1.000      3.860  23.000
  548 2.420 2.085  2.755 1.000 1.00000 2.410 1.000      0.561  23.000
  549 2.460 2.121  2.799 1.000 1.00000 2.470 1.000      2.996  23.000
  550 2.420 2.085  2.755 1.000 1.00000 2.430 1.000      0.753  23.000
  551 2.390 2.058  2.722 1.000 1.00000 2.400 1.000      1.620  23.000
  552 2.480 2.139  2.821 1.000 1.00000 2.480 1.000      4.987  23.000
  553 2.400 2.067  2.733 1.000 1.00000 2.400 1.000      0.227  23.000
  554 2.440 2.103  2.777 1.000 1.00000 2.440 1.000      1.449  23.000
  555 2.420 2.085  2.755 1.000 1.00000 2.430 1.000      0.592  23.000
  556 2.460 2.121  2.799 1.000 1.00000 2.470 1.000      2.523  23.000
  557 2.420 2.085  2.755 1.000 1.00000 2.410 1.000      0.482  23.000
  558 2.430 2.094  2.766 1.000 1.00000 2.440 1.000      0.995  23.000
  559 2.410 2.076  2.744 1.000 1.00000 2.400 1.000      0.339  23.000
  560 2.360 2.031  2.689 1.000 1.00000 2.360 1.000      1.581  23.000
  561 2.360 2.031  2.689 1.000 1.00000 2.360 1.000      1.442  23.000
  562 2.470 2.130  2.810 1.000 1.00000 2.470 1.000      4.625  23.000
  563 2.420 2.085  2.755 1.000 1.00000 2.410 1.000      1.361  23.000
  564 2.530 2.184  2.876 1.000 1.00000 2.530 1.000      6.069  23.000
  565 2.540 2.193  2.887 1.000 1.00000 2.540 1.000     12.568  23.000
  566 2.470 2.130  2.810 1.000 1.00000 2.470 1.000      4.285  23.000
  567 2.410 2.076  2.744 1.000 1.00000 2.410 1.000      0.342  23.000
  568 2.350 2.022  2.678 1.000 1.00000 2.350 1.000      4.780  23.000
  569 2.510 2.166  2.854 1.000 1.00000 2.490 1.000      6.606  23.000
  570 2.360 2.031  2.689 1.000 1.00000 2.360 1.000      1.519  23.000
  571 2.540 2.193  2.887 1.000 1.00000 2.540 1.000     10.890  23.000
  572 2.430 2.094  2.766 1.000 1.00000 2.430 1.000      0.803  23.000
  573 2.380 2.049  2.711 1.000 1.00000 2.380 1.000      4.360  23.000
  574 2.480 2.139  2.821 1.000 1.00000 2.480 1.000      6.513  23.000
  575 2.380 2.049  2.711 1.000 1.00000 2.380 1.000      4.011  23.000
  576 2.500 2.157  2.843 1.000 1.00000 2.490 1.000     12.471  23.000
  577 2.400 2.067  2.733 1.000 1.00000 2.400 1.000      0.223  23.000
  578 2.390 2.058  2.722 1.000 1.00000 2.390 1.000      0.353  23.000
  579 2.380 2.049  2.711 1.000 1.00000 2.380 1.000      1.063  23.000
  580 2.440 2.103  2.777 1.000 1.00000 2.440 1.000      3.530  23.000
  581 2.450 2.112  2.788 1.000 1.00000 2.450 1.000      1.608  23.000
  582 2.370 2.040  2.700 1.000 1.00000 2.360 1.000      1.231  23.000
  583 2.450 2.112  2.788 1.000 1.00000 2.450 1.000      2.697  23.000
  584 2.480 2.139  2.821 1.000 1.00000 2.480 1.000      6.336  23.000
  585 2.450 2.112  2.788 1.000 1.00000 2.450 1.000      1.287  23.000
  586 2.360 2.031  2.689 1.000 1.00000 2.360 1.000      1.336  23.000
  587 2.430 2.094  2.766 1.000 1.00000 2.430 1.000      1.124  23.000
  588 2.380 2.049  2.711 1.000 1.00000 2.380 1.000      0.660  23.000
  589 2.400 2.067  2.733 1.000 1.00000 2.400 1.000      0.260  23.000
  590 2.440 2.103  2.777 1.000 1.00000 2.440 1.000      1.688  23.000
  591 2.380 2.049  2.711 1.000 1.00000 2.380 1.000      1.221  23.000
  592 2.420 2.085  2.755 1.000 1.00000 2.430 1.000      1.415  23.000
  593 2.460 2.121  2.799 1.000 1.00000 2.450 1.000      2.475  23.000
  594 2.490 2.148  2.832 1.000 1.00000 2.480 1.000     12.252  23.000
  595 2.410 2.076  2.744 1.000 1.00000 2.410 1.000      0.610  23.000
  596 2.460 2.121  2.799 1.000 1.00000 2.450 1.000      4.614  23.000
  597 2.480 2.139  2.821 1.000 1.00000 2.480 1.000      6.132  23.000
  598 2.350 2.022  2.678 1.000 1.00000 2.350 1.000      3.945  23.000
  599 2.350 2.022  2.678 1.000 1.00000 2.350 1.000      4.073  23.000
  600 2.450 2.112  2.788 1.000 1.00000 2.450 1.000      1.669  23.000
  601 2.450 2.112  2.788 1.000 1.00000 2.450 1.000      1.645  23.000
  602 2.470 2.130  2.810 1.000 1.00000 2.470 1.000      6.245  23.000
  603 2.380 2.049  2.711 1.000 1.00000 2.390 1.000      0.481  23.000
  604 2.390 2.058  2.722 1.000 1.00000 2.390 1.000      0.449  23.000
  605 2.470 2.130  2.810 1.000 1.00000 2.470 1.000      6.604  23.000
  606 2.440 2.103  2.777 1.000 1.00000 2.440 1.000      1.902  23.000
  607 2.430 2.094  2.766 1.000 1.00000 2.440 1.000      1.016  23.000
  608 2.540 2.193  2.887 1.000 1.00000 2.540 1.000     10.952  23.000
  609 2.570 2.220  2.920 1.000 1.00000 2.570 1.000     13.626  23.000
  610 2.460 2.121  2.799 1.000 1.00000 2.450 1.000      2.388  23.000
  611 2.400 2.067  2.733 1.000 1.00000 2.400 1.000      0.224  23.000
  612 2.600 2.247  2.953 1.000 1.00000 2.590 1.000     18.500  23.000
  613 2.370 2.040  2.700 1.000 1.00000 2.360 1.000      1.016  23.000
  614 2.460 2.121  2.799 1.000 1.00000 2.450 1.000      3.696  23.000
  615 2.540 2.193  2.887 1.000 1.00000 2.540 1.000     15.895  23.000
  616 2.520 2.175  2.865 1.000 1.00000 2.530 1.000      8.308  23.000
  617 2.540 2.193  2.887 1.000 1.00000 2.540 1.000      9.042  23.000
  618 2.380 2.049  2.711 1.000 1.00000 2.390 1.000      0.452  23.000
  619 2.540 2.193  2.887 1.000 1.00000 2.540 1.000      9.173  23.000
  620 2.380 2.049  2.711 1.000 1.00000 2.380 1.000      0.533  23.000
  621 2.390 2.058  2.722 1.000 1.00000 2.390 1.000      0.378  23.000
  622 2.450 2.112  2.788 1.000 1.00000 2.450 1.000      1.622  23.000
  623 2.460 2.121  2.799 1.000 1.00000 2.470 1.000      4.658  23.000
  624 2.400 2.067  2.733 1.000 1.00000 2.400 1.000      0.227  23.000
  625 2.580 2.229  2.931 1.000 1.00000 2.580 1.000     12.962  23.000
  626 2.360 2.031  2.689 1.000 1.00000 2.360 1.000      1.991  23.000
  627 2.360 2.031  2.689 1.000 1.00000 2.360 1.000      2.828  23.000
  628 2.460 2.121  2.799 1.000 1.00000 2.470 1.000      6.147  23.000
  629 2.450 2.112  2.788 1.000 1.00000 2.450 1.000      2.259  23.000
  630 2.350 2.022  2.678 1.000 1.00000 2.350 1.000      4.499  23.000
  631 2.540 2.193  2.887 1.000 1.00000 2.540 1.000     12.913  23.000
  632 2.540 2.193  2.887 1.000 1.00000 2.540 1.000     11.498  23.000
  633 2.480 2.139  2.821 1.000 1.00000 2.480 1.000      5.854  23.000
  634 2.480 2.139  2.821 1.000 1.00000 2.480 1.000      8.785  23.000
  635 2.410 2.076  2.744 1.000 1.00000 2.410 1.000      0.376  23.000
  636 2.360 2.031  2.689 1.000 1.00000 2.350 1.000      2.912  23.000
  637 2.540 2.193  2.887 1.000 1.00000 2.540 1.000     11.131  23.000
  638 2.480 2.139  2.821 1.000 1.00000 2.480 1.000      7.158  23.000
  639 2.380 2.049  2.711 1.000 1.00000 2.380 1.000      0.501  23.000
  640 2.420 2.085  2.755 1.000 1.00000 2.410 1.000      0.695  23.000
  641 2.620 2.265  2.975 1.000 1.00000 2.620 1.000     28.169  23.000
  642 2.440 2.103  2.777 1.000 1.00000 2.440 1.000      1.701  23.000
  643 2.440 2.103  2.777 1.000 1.00000 2.440 1.000      1.657  23.000
  644 2.390 2.058  2.722 1.000 1.00000 2.390 1.000      0.298  23.000
  645 2.400 2.067  2.733 1.000 1.00000 2.400 1.000      1.613  23.000
  646 2.530 2.184  2.876 1.000 1.00000 2.530 1.000      5.553  23.000
  647 2.450 2.112  2.788 1.000 1.00000 2.450 1.000      1.547  23.000
  648 2.480 2.139  2.821 1.000 1.00000 2.480 1.000      7.913  23.000
  649 2.440 2.103  2.777 1.000 1.00000 2.440 1.000      1.341  23.000
  650 2.410 2.076  2.744 1.000 1.00000 2.410 1.000      0.534  23.000
  651 2.430 2.094  2.766 1.000 1.00000 2.440 1.000      0.914  23.000
  652 2.380 2.049  2.711 1.000 1.00000 2.380 1.000      0.654  23.000
  653 2.330 2.004  2.656 1.000 1.00000 2.330 1.000     10.037  23.000
  654 2.460 2.121  2.799 1.000 1.00000 2.470 1.000      4.960  23.000
  655 2.430 2.094  2.766 1.000 1.00000 2.430 1.000      0.614  23.000
  656 2.420 2.085  2.755 1.000 1.00000 2.410 1.000      0.494  23.000
  657 2.420 2.085  2.755 1.000 1.00000 2.420 1.000      1.063  23.000
  658 2.360 2.031  2.689 1.000 1.00000 2.360 1.000      3.171  23.000
  659 2.530 2.184  2.876 1.000 1.00000 2.540 1.000      8.558  23.000
  660 2.470 2.130  2.810 1.000 1.00000 2.470 1.000      8.193  23.000
  661 2.540 2.193  2.887 1.000 1.00000 2.540 1.000     19.582  23.000
  662 2.360 2.031  2.689 1.000 1.00000 2.350 1.000      4.563  23.000
  663 2.340 2.013  2.667 1.000 1.00000 2.340 1.000      3.908  23.000
  664 2.420 2.085  2.755 1.000 1.00000 2.430 1.000      0.788  23.000
  665 2.460 2.121  2.799 1.000 1.00000 2.450 1.000      3.360  23.000
  666 2.400 2.067  2.733 1.000 1.00000 2.400 1.000      0.364  23.000
  667 2.410 2.076  2.744 1.000 1.00000 2.410 1.000      1.701  23.000
  668 2.470 2.130  2.810 1.000 1.00000 2.470 1.000      2.905  23.000
  669 2.440 2.103  2.777 1.000 1.00000 2.450 1.000      2.170  23.000
  670 2.480 2.139  2.821 1.000 1.00000 2.480 1.000      7.516  23.000
  671 2.440 2.103  2.777 1.000 1.00000 2.440 1.000      1.294  23.000
  672 2.350 2.022  2.678 1.000 1.00000 2.350 1.000      3.012  23.000
  673 2.350 2.022  2.678 1.000 1.00000 2.350 1.000      3.936  23.000
  674 2.570 2.220  2.920 1.000 1.00000 2.570 1.000     21.669  23.000
  675 2.380 2.049  2.711 1.000 1.00000 2.380 1.000      0.626  23.000
  676 2.430 2.094  2.766 1.000 1.00000 2.430 1.000      0.943  23.000
  677 2.430 2.094  2.766 1.000 1.00000 2.430 1.000      0.687  23.000
  678 2.480 2.139  2.821 1.000 1.00000 2.480 1.000      5.459  23.000
  679 2.360 2.031  2.689 1.000 1.00000 2.350 1.000      3.089  23.000
  680 2.450 2.112  2.788 1.000 1.00000 2.450 1.000      1.319  23.000
  681 2.410 2.076  2.744 1.000 1.00000 2.410 1.000      0.408  23.000
  682 2.460 2.121  2.799 1.000 1.00000 2.450 1.000      4.413  23.000
  683 2.460 2.121  2.799 1.000 1.00000 2.450 1.000      2.037  23.000
  684 2.460 2.121  2.799 1.000 1.00000 2.450 1.000      1.247  23.000
  685 2.480 2.139  2.821 1.000 1.00000 2.480 1.000      6.052  23.000
  686 2.430 2.094  2.766 1.000 1.00000 2.430 1.000      0.746  23.000
  687 2.530 2.184  2.876 1.000 1.00000 2.530 1.000     10.247  23.000
  688 2.480 2.139  2.821 1.000 1.00000 2.480 1.000      5.318  23.000
  689 2.460 2.121  2.799 1.000 1.00000 2.450 1.000      1.801  23.000
  690 2.340 2.013  2.667 1.000 1.00000 2.340 1.000      3.230  23.000
  691 2.540 2.193  2.887 1.000 1.00000 2.540 1.000      9.576  23.000
  692 2.480 2.139  2.821 1.000 1.00000 2.480 1.000      6.324  23.000
  693 2.420 2.085  2.755 1.000 1.00000 2.430 1.000      0.534  23.000
  694 2.470 2.130  2.810 1.000 1.00000 2.470 1.000      3.230  23.000
  695 2.440 2.103  2.777 1.000 1.00000 2.440 1.000      1.874  23.000
  696 2.350 2.022  2.678 1.000 1.00000 2.350 1.000      2.519  23.000
  697 2.460 2.121  2.799 1.000 1.00000 2.450 1.000      4.398  23.000
  698 2.450 2.112  2.788 1.000 1.00000 2.450 1.000      1.672  23.000
  699 2.550 2.202  2.898 1.000 1.00000 2.550 1.000     15.661  23.000
  700 2.540 2.193  2.887 1.000 1.00000 2.540 1.000      9.990  23.000
  701 2.400 2.067  2.733 1.000 1.00000 2.400 1.000      0.222  23.000
  702 2.470 2.130  2.810 1.000 1.00000 2.470 1.000      8.814  23.000
  703 2.360 2.031  2.689 1.000 1.00000 2.360 1.000      5.204  23.000
  704 2.540 2.193  2.887 1.000 1.00000 2.540 1.000     16.742  23.000
  705 2.480 2.139  2.821 1.000 1.00000 2.480 1.000      4.686  23.000
  706 2.430 2.094  2.766 1.000 1.00000 2.430 1.000      1.078  23.000
  707 2.460 2.121  2.799 1.000 1.00000 2.450 1.000      4.284  23.000
  708 2.620 2.265  2.975 1.000 1.00000 2.620 1.000     22.857  23.000
  709 2.440 2.103  2.777 1.000 1.00000 2.440 1.000      1.443  23.000
  710 2.560 2.211  2.909 1.000 1.00000 2.560 1.000     16.911  23.000
  711 2.390 2.058  2.722 1.000 1.00000 2.390 1.000      0.504  23.000
  712 2.490 2.148  2.832 1.000 1.00000 2.490 1.000      4.934  23.000
  713 2.340 2.013  2.667 1.000 1.00000 2.340 1.000      6.842  23.000
  714 2.440 2.103  2.777 1.000 1.00000 2.440 1.000      1.862  23.000
  715 2.540 2.193  2.887 1.000 1.00000 2.540 1.000     12.899  23.000
  716 2.530 2.184  2.876 1.000 1.00000 2.540 1.000     11.576  23.000
  717 2.440 2.103  2.777 1.000 1.00000 2.440 1.000      1.454  23.000
  718 2.530 2.184  2.876 1.000 1.00000 2.530 1.000     10.745  23.000
  719 2.560 2.211  2.909 1.000 1.00000 2.570 1.000     17.090  23.000
  720 2.450 2.112  2.788 1.000 1.00000 2.450 1.000      3.183  23.000
  721 2.390 2.058  2.722 1.000 1.00000 2.390 1.000      0.423  23.000
  722 2.390 2.058  2.722 1.000 1.00000 2.390 1.000      0.538  23.000
  723 2.460 2.121  2.799 1.000 1.00000 2.450 1.000      2.955  23.000
  724 2.430 2.094  2.766 1.000 1.00000 2.440 1.000      0.771  23.000
  725 2.380 2.049  2.711 1.000 1.00000 2.380 1.000      1.279  23.000
  726 2.450 2.112  2.788 1.000 1.00000 2.450 1.000      1.827  23.000
  727 2.450 2.112  2.788 1.000 1.00000 2.450 1.000      1.958  23.000
  728 2.530 2.184  2.876 1.000 1.00000 2.540 1.000     10.923  23.000
  729 2.550 2.202  2.898 1.000 1.00000 2.550 1.000     15.203  23.000
  730 2.400 2.067  2.733 1.000 1.00000 2.400 1.000      0.986  23.000
  731 2.630 2.274  2.986 1.000 1.00000 2.630 1.000     22.378  23.000
  732 2.470 2.130  2.810 1.000 1.00000 2.470 1.000      6.873  23.000
  733 2.400 2.067  2.733 1.000 1.00000 2.400 1.000      2.772  23.000
  734 2.490 2.148  2.832 1.000 1.00000 2.480 1.000      5.843  23.000
  735 2.540 2.193  2.887 1.000 1.00000 2.540 1.000     16.501  23.000
  736 2.370 2.040  2.700 1.000 1.00000 2.370 1.000      2.922  23.000
  737 2.380 2.049  2.711 1.000 1.00000 2.390 1.000      1.461  23.000
  738 2.530 2.184  2.876 1.000 1.00000 2.540 1.000     11.252  23.000
  739 2.470 2.130  2.810 1.000 1.00000 2.470 1.000      4.309  23.000
  740 2.370 2.040  2.700 1.000 1.00000 2.370 1.000      1.362  23.000
  741 2.460 2.121  2.799 1.000 1.00000 2.450 1.000      3.005  23.000
  742 2.460 2.121  2.799 1.000 1.00000 2.450 1.000      3.677  23.000
  743 2.540 2.193  2.887 1.000 1.00000 2.540 1.000      9.402  23.000
  744 2.380 2.049  2.711 1.000 1.00000 2.380 1.000      1.859  23.000
  745 2.470 2.130  2.810 1.000 1.00000 2.480 1.000      4.203  23.000
  746 2.440 2.103  2.777 1.000 1.00000 2.440 1.000      2.258  23.000
  747 2.470 2.130  2.810 1.000 1.00000 2.470 1.000      3.644  23.000
  748 2.370 2.040  2.700 1.000 1.00000 2.360 1.000      1.015  23.000
  749 2.460 2.121  2.799 1.000 1.00000 2.450 1.000      5.336  23.000
  750 2.450 2.112  2.788 1.000 1.00000 2.450 1.000      2.136  23.000
  751 2.570 2.220  2.920 1.000 1.00000 2.570 1.000     21.192  23.000
  752 2.390 2.058  2.722 1.000 1.00000 2.390 1.000      0.331  23.000
  753 2.540 2.193  2.887 1.000 1.00000 2.540 1.000     10.276  23.000
  754 2.560 2.211  2.909 1.000 1.00000 2.550 1.000     16.968  23.000
  755 2.540 2.193  2.887 1.000 1.00000 2.540 1.000      8.834  23.000
  756 2.460 2.121  2.799 1.000 1.00000 2.450 1.000      3.783  23.000
  757 2.450 2.112  2.788 1.000 1.00000 2.450 1.000      4.296  23.000
  758 2.580 2.229  2.931 1.000 1.00000 2.580 1.000     11.615  23.000
  759 2.360 2.031  2.689 1.000 1.00000 2.360 1.000      1.764  23.000
  760 2.430 2.094  2.766 1.000 1.00000 2.440 1.000      1.219  23.000
  761 2.530 2.184  2.876 1.000 1.00000 2.530 1.000      7.827  23.000
  762 2.440 2.103  2.777 1.000 1.00000 2.440 1.000      1.714  23.000
  763 2.480 2.139  2.821 1.000 1.00000 2.480 1.000      9.087  23.000
  764 2.430 2.094  2.766 1.000 1.00000 2.430 1.000      0.799  23.000
  765 2.370 2.040  2.700 1.000 1.00000 2.360 1.000      1.642  23.000
  766 2.340 2.013  2.667 1.000 1.00000 2.340 1.000      4.520  23.000
  767 2.400 2.067  2.733 1.000 1.00000 2.400 1.000      0.631  23.000
  768 2.530 2.184  2.876 1.000 1.00000 2.530 1.000     10.398  23.000
  769 2.400 2.067  2.733 1.000 1.00000 2.400 1.000      0.286  23.000
  770 2.520 2.175  2.865 1.000 1.00000 2.530 1.000      8.203  23.000
  771 2.410 2.076  2.744 1.000 1.00000 2.410 1.000      0.333  23.000
  772 2.460 2.121  2.799 1.000 1.00000 2.450 1.000      5.425  23.000
  773 2.460 2.121  2.799 1.000 1.00000 2.470 1.000      3.214  23.000
  774 2.380 2.049  2.711 1.000 1.00000 2.380 1.000      0.730  23.000
  775 2.440 2.103  2.777 1.000 1.00000 2.440 1.000      1.892  23.000
  776 2.410 2.076  2.744 1.000 1.00000 2.410 1.000      0.422  23.000
  777 2.420 2.085  2.755 1.000 1.00000 2.430 1.000      0.579  23.000
  778 2.480 2.139  2.821 1.000 1.00000 2.480 1.000      8.403  23.000
  779 2.420 2.085  2.755 1.000 1.00000 2.430 1.000      1.113  23.000
  780 2.540 2.193  2.887 1.000 1.00000 2.540 1.000     10.704  23.000
  781 2.540 2.193  2.887 1.000 1.00000 2.540 1.000     11.956  23.000
  782 2.430 2.094  2.766 1.000 1.00000 2.440 1.000      0.948  23.000
  783 2.510 2.166  2.854 1.000 1.00000 2.530 1.000      9.549  23.000
  784 2.480 2.139  2.821 1.000 1.00000 2.480 1.000      2.787  23.000
  785 2.420 2.085  2.755 1.000 1.00000 2.430 1.000      0.566  23.000
  786 2.330 2.004  2.656 1.000 1.00000 2.330 1.000     12.788  23.000
  787 2.440 2.103  2.777 1.000 1.00000 2.440 1.000      1.213  23.000
  788 2.540 2.193  2.887 1.000 1.00000 2.540 1.000     10.488  23.000
  789 2.460 2.121  2.799 1.000 1.00000 2.450 1.000      2.747  23.000
  790 2.450 2.112  2.788 1.000 1.00000 2.450 1.000      1.562  23.000
  791 2.360 2.031  2.689 1.000 1.00000 2.360 1.000      1.911  23.000
  792 2.380 2.049  2.711 1.000 1.00000 2.380 1.000      0.894  23.000
  793 2.490 2.148  2.832 1.000 1.00000 2.480 1.000      6.565  23.000
  794 2.360 2.031  2.689 1.000 1.00000 2.360 1.000      2.080  23.000
  795 2.360 2.031  2.689 1.000 1.00000 2.350 1.000      2.768  23.000
  796 2.440 2.103  2.777 1.000 1.00000 2.440 1.000      1.986  23.000
  797 2.430 2.094  2.766 1.000 1.00000 2.430 1.000      1.059  23.000
  798 2.390 2.058  2.722 1.000 1.00000 2.390 1.000      0.885  23.000
  799 2.540 2.193  2.887 1.000 1.00000 2.540 1.000     13.967  23.000
  800 2.420 2.085  2.755 1.000 1.00000 2.410 1.000      0.526  23.000
  801 2.470 2.130  2.810 1.000 1.00000 2.470 1.000      3.333  23.000
  802 2.460 2.121  2.799 1.000 1.00000 2.470 1.000      2.111  23.000
  803 2.440 2.103  2.777 1.000 1.00000 2.440 1.000      1.535  23.000
  804 2.410 2.076  2.744 1.000 1.00000 2.410 1.000      0.401  23.000
  805 2.440 2.103  2.777 1.000 1.00000 2.440 1.000      1.749  23.000
  806 2.480 2.139  2.821 1.000 1.00000 2.480 1.000      2.999  23.000
  807 2.450 2.112  2.788 1.000 1.00000 2.450 1.000      1.753  23.000
  808 2.480 2.139  2.821 1.000 1.00000 2.480 1.000      7.257  23.000
  809 2.350 2.022  2.678 1.000 1.00000 2.350 1.000      3.504  23.000
  810 2.540 2.193  2.887 1.000 1.00000 2.540 1.000     15.404  23.000
  811 2.400 2.067  2.733 1.000 1.00000 2.400 1.000      0.284  23.000
  812 2.360 2.031  2.689 1.000 1.00000 2.360 1.000      1.220  23.000
  813 2.420 2.085  2.755 1.000 1.00000 2.430 1.000      0.565  23.000
  814 2.450 2.112  2.788 1.000 1.00000 2.450 1.000      1.590  23.000
  815 2.450 2.112  2.788 1.000 1.00000 2.450 1.000      2.798  23.000
  816 2.360 2.031  2.689 1.000 1.00000 2.360 1.000      2.364  23.000
  817 2.440 2.103  2.777 1.000 1.00000 2.440 1.000      1.458  23.000
  818 2.430 2.094  2.766 1.000 1.00000 2.430 1.000      0.621  23.000
  819 2.420 2.085  2.755 1.000 1.00000 2.430 1.000      0.549  23.000
  820 2.420 2.085  2.755 1.000 1.00000 2.430 1.000      0.635  23.000
  821 2.540 2.193  2.887 1.000 1.00000 2.540 1.000     10.379  23.000
  822 2.450 2.112  2.788 1.000 1.00000 2.450 1.000      2.245  23.000
  823 2.340 2.013  2.667 1.000 1.00000 2.340 1.000      7.087  23.000
  824 2.430 2.094  2.766 1.000 1.00000 2.430 1.000      0.796  23.000
  825 2.440 2.103  2.777 1.000 1.00000 2.450 1.000      1.945  23.000
  826 2.500 2.157  2.843 1.000 1.00000 2.490 1.000      8.539  23.000
  827 2.400 2.067  2.733 1.000 1.00000 2.400 1.000      0.369  23.000
  828 2.440 2.103  2.777 1.000 1.00000 2.440 1.000      2.145  23.000
  829 2.440 2.103  2.777 1.000 1.00000 2.440 1.000      1.987  23.000
  830 2.460 2.121  2.799 1.000 1.00000 2.470 1.000      7.282  23.000
  831 2.540 2.193  2.887 1.000 1.00000 2.540 1.000     13.931  23.000
  832 2.410 2.076  2.744 1.000 1.00000 2.410 1.000      0.739  23.000
  833 2.540 2.193  2.887 1.000 1.00000 2.540 1.000     10.058  23.000
  834 2.530 2.184  2.876 1.000 1.00000 2.530 1.000     10.922  23.000
  835 2.480 2.139  2.821 1.000 1.00000 2.480 1.000      4.541  23.000
  836 2.380 2.049  2.711 1.000 1.00000 2.380 1.000      0.596  23.000
  837 2.430 2.094  2.766 1.000 1.00000 2.440 1.000      1.189  23.000
  838 2.460 2.121  2.799 1.000 1.00000 2.450 1.000      2.041  23.000
  839 2.440 2.103  2.777 1.000 1.00000 2.440 1.000      2.160  23.000
  840 2.400 2.067  2.733 1.000 1.00000 2.400 1.000      0.215  23.000
  841 2.430 2.094  2.766 1.000 1.00000 2.440 1.000      1.312  23.000
  842 2.450 2.112  2.788 1.000 1.00000 2.450 1.000      3.998  23.000
  843 2.570 2.220  2.920 1.000 1.00000 2.570 1.000     21.578  23.000
  844 2.430 2.094  2.766 1.000 1.00000 2.440 1.000      0.913  23.000
  845 2.440 2.103  2.777 1.000 1.00000 2.440 1.000      1.619  23.000
  846 2.340 2.013  2.667 1.000 1.00000 2.340 1.000      3.498  23.000
  847 2.470 2.130  2.810 1.000 1.00000 2.470 1.000      7.221  23.000
  848 2.400 2.067  2.733 1.000 1.00000 2.400 1.000      0.206  23.000
  849 2.420 2.085  2.755 1.000 1.00000 2.410 1.000      0.870  23.000
  850 2.370 2.040  2.700 1.000 1.00000 2.380 1.000      0.727  23.000
  851 2.460 2.121  2.799 1.000 1.00000 2.450 1.000      5.962  23.000
  852 2.470 2.130  2.810 1.000 1.00000 2.470 1.000      6.277  23.000
  853 2.490 2.148  2.832 1.000 1.00000 2.490 1.000      4.027  23.000
  854 2.460 2.121  2.799 1.000 1.00000 2.450 1.000      1.229  23.000
  855 2.400 2.067  2.733 1.000 1.00000 2.400 1.000      0.212  23.000
  856 2.430 2.094  2.766 1.000 1.00000 2.430 1.000      1.434  23.000
  857 2.380 2.049  2.711 1.000 1.00000 2.380 1.000      1.005  23.000
  858 2.360 2.031  2.689 1.000 1.00000 2.360 1.000      2.405  23.000
  859 2.480 2.139  2.821 1.000 1.00000 2.480 1.000      8.488  23.000
  860 2.570 2.220  2.920 1.000 1.00000 2.570 1.000     24.680  23.000
  861 2.400 2.067  2.733 1.000 1.00000 2.400 1.000      2.220  23.000
  862 2.360 2.031  2.689 1.000 1.00000 2.360 1.000      1.493  23.000
  863 2.540 2.193  2.887 1.000 1.00000 2.540 1.000     15.051  23.000
  864 2.440 2.103  2.777 1.000 1.00000 2.440 1.000      1.876  23.000
  865 2.580 2.229  2.931 1.000 1.00000 2.580 1.000     22.898  23.000
  866 2.480 2.139  2.821 1.000 1.00000 2.480 1.000      3.469  23.000
  867 2.620 2.265  2.975 1.000 1.00000 2.620 1.000     18.641  23.000
  868 2.540 2.193  2.887 1.000 1.00000 2.540 1.000      6.876  23.000
  869 2.540 2.193  2.887 1.000 1.00000 2.540 1.000     11.790  23.000
  870 2.610 2.256  2.964 1.000 1.00000 2.610 1.000     17.910  23.000
  871 2.340 2.013  2.667 1.000 1.00000 2.340 1.000      8.986  23.000
  872 2.370 2.040  2.700 1.000 1.00000 2.370 1.000      0.954  23.000
  873 2.470 2.130  2.810 1.000 1.00000 2.470 1.000      3.092  23.000
  874 2.440 2.103  2.777 1.000 1.00000 2.440 1.000      1.469  23.000
  875 2.440 2.103  2.777 1.000 1.00000 2.440 1.000      2.837  23.000
  876 2.380 2.049  2.711 1.000 1.00000 2.380 1.000      0.572  23.000
  877 2.490 2.148  2.832 1.000 1.00000 2.480 1.000     10.788  23.000
  878 2.430 2.094  2.766 1.000 1.00000 2.440 1.000      0.948  23.000
  879 2.470 2.130  2.810 1.000 1.00000 2.470 1.000      6.495  23.000
  880 2.490 2.148  2.832 1.000 1.00000 2.490 1.000      6.389  23.000
  881 2.440 2.103  2.777 1.000 1.00000 2.440 1.000      1.840  23.000
  882 2.480 2.139  2.821 1.000 1.00000 2.480 1.000      2.858  23.000
  883 2.340 2.013  2.667 1.000 1.00000 2.340 1.000      3.873  23.000
  884 2.430 2.094  2.766 1.000 1.00000 2.430 1.000      0.608  23.000
  885 2.460 2.121  2.799 1.000 1.00000 2.450 1.000      1.775  23.000
  886 2.540 2.193  2.887 1.000 1.00000 2.540 1.000     11.717  23.000
  887 2.440 2.103  2.777 1.000 1.00000 2.440 1.000      1.130  23.000
  888 2.440 2.103  2.777 1.000 1.00000 2.440 1.000      2.728  23.000
  889 2.450 2.112  2.788 1.000 1.00000 2.440 1.000      3.747  23.000
  890 2.550 2.202  2.898 1.000 1.00000 2.540 1.000     15.971  23.000
  891 2.370 2.040  2.700 1.000 1.00000 2.380 1.000      1.233  23.000
  892 2.410 2.076  2.744 1.000 1.00000 2.410 1.000      0.931  23.000
  893 2.610 2.256  2.964 1.000 1.00000 2.610 1.000     21.250  23.000
  894 2.540 2.193  2.887 1.000 1.00000 2.540 1.000      7.497  23.000
  895 2.540 2.193  2.887 1.000 1.00000 2.540 1.000      8.461  23.000
  896 2.420 2.085  2.755 1.000 1.00000 2.430 1.000      0.646  23.000
  897 2.480 2.139  2.821 1.000 1.00000 2.480 1.000      7.726  23.000
  898 2.370 2.040  2.700 1.000 1.00000 2.370 1.000      4.135  23.000
  899 2.360 2.031  2.689 1.000 1.00000 2.360 1.000      5.756  23.000
  900 2.580 2.229  2.931 1.000 1.00000 2.580 1.000     22.566  23.000
  901 2.380 2.049  2.711 1.000 1.00000 2.380 1.000      0.997  23.000
  902 2.330 2.004  2.656 1.000 1.00000 2.330 1.000      9.321  23.000
  903 2.480 2.139  2.821 1.000 1.00000 2.480 1.000      5.418  23.000
  904 2.340 2.013  2.667 1.000 1.00000 2.340 1.000      3.214  23.000
  905 2.380 2.049  2.711 1.000 1.00000 2.380 1.000      0.496  23.000
  906 2.360 2.031  2.689 1.000 1.00000 2.350 1.000      4.697  23.000
  907 2.390 2.058  2.722 1.000 1.00000 2.390 1.000      0.871  23.000
  908 2.470 2.130  2.810 1.000 1.00000 2.470 1.000      5.265  23.000
  909 2.530 2.184  2.876 1.000 1.00000 2.530 1.000      8.688  23.000
  910 2.450 2.112  2.788 1.000 1.00000 2.450 1.000      2.637  23.000
  911 2.540 2.193  2.887 1.000 1.00000 2.540 1.000      8.227  23.000
  912 2.430 2.094  2.766 1.000 1.00000 2.440 1.000      0.822  23.000
  913 2.360 2.031  2.689 1.000 1.00000 2.350 1.000      5.208  23.000
  914 2.390 2.058  2.722 1.000 1.00000 2.390 1.000      0.346  23.000
  915 2.430 2.094  2.766 1.000 1.00000 2.430 1.000      0.735  23.000
  916 2.460 2.121  2.799 1.000 1.00000 2.450 1.000      5.540  23.000
  917 2.490 2.148  2.832 1.000 1.00000 2.480 1.000     10.846  23.000
  918 2.430 2.094  2.766 1.000 1.00000 2.440 1.000      1.663  23.000
  919 2.400 2.067  2.733 1.000 1.00000 2.400 1.000      0.430  23.000
  920 2.450 2.112  2.788 1.000 1.00000 2.450 1.000      1.271  23.000
  921 2.480 2.139  2.821 1.000 1.00000 2.480 1.000      3.930  23.000
  922 2.430 2.094  2.766 1.000 1.00000 2.430 1.000      0.675  23.000
  923 2.420 2.085  2.755 1.000 1.00000 2.410 1.000      0.613  23.000
  924 2.350 2.022  2.678 1.000 1.00000 2.350 1.000      4.005  23.000
  925 2.400 2.067  2.733 1.000 1.00000 2.400 1.000      0.228  23.000
  926 2.440 2.103  2.777 1.000 1.00000 2.440 1.000      2.154  23.000
  927 2.430 2.094  2.766 1.000 1.00000 2.430 1.000      0.726  23.000
  928 2.460 2.121  2.799 1.000 1.00000 2.450 1.000      4.297  23.000
  929 2.440 2.103  2.777 1.000 1.00000 2.440 1.000      2.190  23.000
  930 2.380 2.049  2.711 1.000 1.00000 2.380 1.000      2.863  23.000
  931 2.440 2.103  2.777 1.000 1.00000 2.440 1.000      1.126  23.000
  932 2.430 2.094  2.766 1.000 1.00000 2.440 1.000      1.594  23.000
  933 2.440 2.103  2.777 1.000 1.00000 2.440 1.000      1.472  23.000
  934 2.510 2.166  2.854 1.000 1.00000 2.530 1.000      4.883  23.000
  935 2.400 2.067  2.733 1.000 1.00000 2.400 1.000      4.392  23.000
  936 2.430 2.094  2.766 1.000 1.00000 2.430 1.000      1.123  23.000
  937 2.460 2.121  2.799 1.000 1.00000 2.450 1.000      1.760  23.000
  938 2.420 2.085  2.755 1.000 1.00000 2.430 1.000      0.841  23.000
  939 2.540 2.193  2.887 1.000 1.00000 2.540 1.000     13.624  23.000
  940 2.420 2.085  2.755 1.000 1.00000 2.410 1.000      0.557  23.000
  941 2.420 2.085  2.755 1.000 1.00000 2.430 1.000      0.560  23.000
  942 2.540 2.193  2.887 1.000 1.00000 2.540 1.000     12.761  23.000
  943 2.410 2.076  2.744 1.000 1.00000 2.410 1.000      0.406  23.000
  944 2.430 2.094  2.766 1.000 1.00000 2.440 1.000      1.369  23.000
  945 2.570 2.220  2.920 1.000 1.00000 2.570 1.000     18.142  23.000
  946 2.370 2.040  2.700 1.000 1.00000 2.360 1.000      1.158  23.000
  947 2.540 2.193  2.887 1.000 1.00000 2.540 1.000     12.824  23.000
  948 2.400 2.067  2.733 1.000 1.00000 2.400 1.000      0.778  23.000
  949 2.380 2.049  2.711 1.000 1.00000 2.380 1.000      0.516  23.000
  950 2.490 2.148  2.832 1.000 1.00000 2.480 1.000     10.452  23.000
  951 2.430 2.094  2.766 1.000 1.00000 2.440 1.000      0.902  23.000
  952 2.450 2.112  2.788 1.000 1.00000 2.450 1.000      4.682  23.000
  953 2.450 2.112  2.788 1.000 1.00000 2.450 1.000      2.812  23.000
  954 2.340 2.013  2.667 1.000 1.00000 2.340 1.000      5.370  23.000
  955 2.540 2.193  2.887 1.000 1.00000 2.540 1.000     19.207  23.000
  956 2.330 2.004  2.656 1.000 1.00000 2.340 1.000      9.266  23.000
  957 2.360 2.031  2.689 1.000 1.00000 2.350 1.000      4.864  23.000
  958 2.430 2.094  2.766 1.000 1.00000 2.430 1.000      0.726  23.000
  959 2.540 2.193  2.887 1.000 1.00000 2.540 1.000     12.559  23.000
  960 2.410 2.076  2.744 1.000 1.00000 2.410 1.000      0.801  23.000
  961 2.530 2.184  2.876 1.000 1.00000 2.530 1.000      9.419  23.000
  962 2.450 2.112  2.788 1.000 1.00000 2.450 1.000      3.458  23.000
  963 2.440 2.103  2.777 1.000 1.00000 2.440 1.000      1.325  23.000
  964 2.410 2.076  2.744 1.000 1.00000 2.410 1.000      0.630  23.000
  965 2.540 2.193  2.887 1.000 1.00000 2.540 1.000     17.556  23.000
  966 2.380 2.049  2.711 1.000 1.00000 2.380 1.000      1.704  23.000
  967 2.530 2.184  2.876 1.000 1.00000 2.530 1.000      8.337  23.000
  968 2.400 2.067  2.733 1.000 1.00000 2.400 1.000      0.263  23.000
  969 2.480 2.139  2.821 1.000 1.00000 2.480 1.000      5.234  23.000
  970 2.430 2.094  2.766 1.000 1.00000 2.440 1.000      1.197  23.000
  971 2.460 2.121  2.799 1.000 1.00000 2.450 1.000      4.121  23.000
  972 2.450 2.112  2.788 1.000 1.00000 2.450 1.000      3.071  23.000
  973 2.420 2.085  2.755 1.000 1.00000 2.430 1.000      0.747  23.000
  974 2.440 2.103  2.777 1.000 1.00000 2.440 1.000      2.521  23.000
  975 2.400 2.067  2.733 1.000 1.00000 2.400 1.000      0.195  23.000
  976 2.480 2.139  2.821 1.000 1.00000 2.480 1.000      5.265  23.000
  977 2.410 2.076  2.744 1.000 1.00000 2.410 1.000      0.316  23.000
  978 2.440 2.103  2.777 1.000 1.00000 2.440 1.000      1.821  23.000
  979 2.490 2.148  2.832 1.000 1.00000 2.480 1.000      6.009  23.000
  980 2.340 2.013  2.667 1.000 1.00000 2.340 1.000      4.028  23.000
  981 2.540 2.193  2.887 1.000 1.00000 2.540 1.000      8.422  23.000
  982 2.430 2.094  2.766 1.000 1.00000 2.440 1.000      0.807  23.000
  983 2.430 2.094  2.766 1.000 1.00000 2.440 1.000      0.876  23.000
  984 2.420 2.085  2.755 1.000 1.00000 2.430 1.000      0.902  23.000
  985 2.400 2.067  2.733 1.000 1.00000 2.400 1.000      2.421  23.000
  986 2.450 2.112  2.788 1.000 1.00000 2.450 1.000      4.398  23.000
  987 2.370 2.040  2.700 1.000 1.00000 2.370 1.000      0.922  23.000
  988 2.420 2.085  2.755 1.000 1.00000 2.430 1.000      1.309  23.000
  989 2.360 2.031  2.689 1.000 1.00000 2.360 1.000      2.071  23.000
  990 2.430 2.094  2.766 1.000 1.00000 2.440 1.000      0.932  23.000
  991 2.360 2.031  2.689 1.000 1.00000 2.360 1.000      1.662  23.000
  992 2.470 2.130  2.810 1.000 1.00000 2.470 1.000      7.643  23.000
  993 2.550 2.202  2.898 1.000 1.00000 2.550 1.000     11.914  23.000
  994 2.560 2.211  2.909 1.000 1.00000 2.560 1.000     12.993  23.000
  995 2.360 2.031  2.689 1.000 1.00000 2.360 1.000      3.631  23.000
  996 2.450 2.112  2.788 1.000 1.00000 2.450 1.000      3.050  23.000
  997 2.440 2.103  2.777 1.000 1.00000 2.440 1.000      1.669  23.000
  998 2.450 2.112  2.788 1.000 1.00000 2.450 1.000      4.214  23.000
  999 2.410 2.076  2.744 1.000 1.00000 2.410 1.000      0.550  23.000
 1000 2.540 2.193  2.887 1.000 1.00000 2.540 1.000     14.311  23.000
 1001 2.530 2.184  2.876 1.000 1.00000 2.530 1.000      7.228  23.000
 1002 2.620 2.265  2.975 1.000 1.00000 2.620 1.000     27.377  23.000
 1003 2.450 2.112  2.788 1.000 1.00000 2.450 1.000      2.969  23.000
 1004 2.340 2.013  2.667 1.000 1.00000 2.340 1.000      5.530  23.000
 1005 2.410 2.076  2.744 1.000 1.00000 2.400 1.000      0.276  23.000
 1006 2.460 2.121  2.799 1.000 1.00000 2.450 1.000      3.710  23.000
 1007 2.410 2.076  2.744 1.000 1.00000 2.410 1.000      1.345  23.000
 1008 2.550 2.202  2.898 1.000 1.00000 2.550 1.000     15.504  23.000
 1009 2.440 2.103  2.777 1.000 1.00000 2.440 1.000      1.968  23.000
 1010 2.460 2.121  2.799 1.000 1.00000 2.450 1.000      3.501  23.000
 1011 2.530 2.184  2.876 1.000 1.00000 2.540 1.000      8.183  23.000
 1012 2.390 2.058  2.722 1.000 1.00000 2.390 1.000      0.435  23.000
 1013 2.540 2.193  2.887 1.000 1.00000 2.540 1.000     13.154  23.000
 1014 2.510 2.166  2.854 1.000 1.00000 2.530 1.000     11.367  23.000
 1015 2.440 2.103  2.777 1.000 1.00000 2.450 1.000      1.734  23.000
 1016 2.370 2.040  2.700 1.000 1.00000 2.370 1.000      0.830  23.000
 1017 2.470 2.130  2.810 1.000 1.00000 2.470 1.000      4.117  23.000
 1018 2.360 2.031  2.689 1.000 1.00000 2.350 1.000      3.466  23.000
 1019 2.330 2.004  2.656 1.000 1.00000 2.330 1.000     11.068  23.000
 1020 2.460 2.121  2.799 1.000 1.00000 2.450 1.000      1.756  23.000
 1021 2.440 2.103  2.777 1.000 1.00000 2.440 1.000      1.577  23.000
 1022 2.430 2.094  2.766 1.000 1.00000 2.440 1.000      1.409  23.000
 1023 2.530 2.184  2.876 1.000 1.00000 2.530 1.000      9.497  23.000
 1024 2.410 2.076  2.744 1.000 1.00000 2.410 1.000      0.359  23.000
 1025 2.420 2.085  2.755 1.000 1.00000 2.410 1.000      0.555  23.000
 1026 2.560 2.211  2.909 1.000 1.00000 2.560 1.000     16.518  23.000
 1027 2.440 2.103  2.777 1.000 1.00000 2.440 1.000      1.972  23.000
 1028 2.390 2.058  2.722 1.000 1.00000 2.390 1.000      0.525  23.000
 1029 2.540 2.193  2.887 1.000 1.00000 2.540 1.000      6.142  23.000
 1030 2.480 2.139  2.821 1.000 1.00000 2.480 1.000      6.522  23.000
 1031 2.390 2.058  2.722 1.000 1.00000 2.390 1.000      0.232  23.000
 1032 2.590 2.238  2.942 1.000 1.00000 2.590 1.000     19.593  23.000
 1033 2.390 2.058  2.722 1.000 1.00000 2.390 1.000      0.430  23.000
 1034 2.480 2.139  2.821 1.000 1.00000 2.480 1.000      6.654  23.000
 1035 2.350 2.022  2.678 1.000 1.00000 2.350 1.000      3.909  23.000
 1036 2.490 2.148  2.832 1.000 1.00000 2.480 1.000      5.440  23.000
 1037 2.340 2.013  2.667 1.000 1.00000 2.340 1.000     14.967  23.000
 1038 2.450 2.112  2.788 1.000 1.00000 2.450 1.000      3.809  23.000
 1039 2.390 2.058  2.722 1.000 1.00000 2.390 1.000      0.347  23.000
 1040 2.560 2.211  2.909 1.000 1.00000 2.560 1.000     19.641  23.000
 1041 2.430 2.094  2.766 1.000 1.00000 2.430 1.000      1.919  23.000
 1042 2.370 2.040  2.700 1.000 1.00000 2.370 1.000      0.913  23.000
 1043 2.390 2.058  2.722 1.000 1.00000 2.390 1.000      0.237  23.000
 1044 2.370 2.040  2.700 1.000 1.00000 2.360 1.000      1.490  23.000
 1045 2.430 2.094  2.766 1.000 1.00000 2.430 1.000      0.831  23.000
 1046 2.540 2.193  2.887 1.000 1.00000 2.540 1.000     11.912  23.000
 1047 2.510 2.166  2.854 1.000 1.00000 2.530 1.000      9.484  23.000
 1048 2.380 2.049  2.711 1.000 1.00000 2.380 1.000      1.178  23.000
 1049 2.560 2.211  2.909 1.000 1.00000 2.550 1.000     15.060  23.000
 1050 2.450 2.112  2.788 1.000 1.00000 2.450 1.000      1.643  23.000
 1051 2.410 2.076  2.744 1.000 1.00000 2.410 1.000      0.332  23.000
 1052 2.380 2.049  2.711 1.000 1.00000 2.380 1.000      1.184  23.000
 1053 2.460 2.121  2.799 1.000 1.00000 2.450 1.000      2.293  23.000
 1054 2.520 2.175  2.865 1.000 1.00000 2.530 1.000      8.131  23.000
 1055 2.400 2.067  2.733 1.000 1.00000 2.400 1.000      0.209  23.000
 1056 2.370 2.040  2.700 1.000 1.00000 2.360 1.000      2.082  23.000
 1057 2.340 2.013  2.667 1.000 1.00000 2.340 1.000      5.822  23.000
 1058 2.390 2.058  2.722 1.000 1.00000 2.390 1.000      2.393  23.000
 1059 2.540 2.193  2.887 1.000 1.00000 2.540 1.000     12.379  23.000
 1060 2.430 2.094  2.766 1.000 1.00000 2.440 1.000      0.857  23.000
 1061 2.350 2.022  2.678 1.000 1.00000 2.350 1.000      3.265  23.000
 1062 2.540 2.193  2.887 1.000 1.00000 2.540 1.000     19.484  23.000
 1063 2.410 2.076  2.744 1.000 1.00000 2.400 1.000      0.796  23.000
 1064 2.430 2.094  2.766 1.000 1.00000 2.440 1.000      0.824  23.000
 1065 2.590 2.238  2.942 1.000 1.00000 2.590 1.000     26.988  23.000
 1066 2.460 2.121  2.799 1.000 1.00000 2.470 1.000      3.461  23.000
 1067 2.470 2.130  2.810 1.000 1.00000 2.470 1.000      8.549  23.000
 1068 2.340 2.013  2.667 1.000 1.00000 2.340 1.000      6.070  23.000
 1069 2.390 2.058  2.722 1.000 1.00000 2.390 1.000      0.362  23.000
 1070 2.470 2.130  2.810 1.000 1.00000 2.470 1.000      3.849  23.000
 1071 2.440 2.103  2.777 1.000 1.00000 2.440 1.000      1.972  23.000
 1072 2.550 2.202  2.898 1.000 1.00000 2.550 1.000     20.945  23.000
 1073 2.350 2.022  2.678 1.000 1.00000 2.350 1.000      2.846  23.000
 1074 2.350 2.022  2.678 1.000 1.00000 2.350 1.000      9.739  23.000
 1075 2.350 2.022  2.678 1.000 1.00000 2.350 1.000      6.762  23.000
 1076 2.340 2.013  2.667 1.000 1.00000 2.340 1.000      8.164  23.000
 1077 2.420 2.085  2.755 1.000 1.00000 2.430 1.000      0.553  23.000
 1078 2.540 2.193  2.887 1.000 1.00000 2.540 1.000     10.934  23.000
 1079 2.400 2.067  2.733 1.000 1.00000 2.400 1.000      1.986  23.000
 1080 2.440 2.103  2.777 1.000 1.00000 2.440 1.000      2.000  23.000
 1081 2.480 2.139  2.821 1.000 1.00000 2.480 1.000      7.097  23.000
 1082 2.570 2.220  2.920 1.000 1.00000 2.570 1.000     22.254  23.000
 1083 2.450 2.112  2.788 1.000 1.00000 2.450 1.000      1.129  23.000
 1084 2.500 2.157  2.843 1.000 1.00000 2.490 1.000      5.905  23.000
 1085 2.370 2.040  2.700 1.000 1.00000 2.360 1.000      1.689  23.000
 1086 2.530 2.184  2.876 1.000 1.00000 2.530 1.000      8.055  23.000
 1087 2.340 2.013  2.667 1.000 1.00000 2.340 1.000      8.708  23.000
 1088 2.540 2.193  2.887 1.000 1.00000 2.540 1.000     18.641  23.000
 1089 2.360 2.031  2.689 1.000 1.00000 2.360 1.000      1.268  23.000
 1090 2.430 2.094  2.766 1.000 1.00000 2.440 1.000      1.138  23.000
 1091 2.430 2.094  2.766 1.000 1.00000 2.440 1.000      0.873  23.000
 1092 2.420 2.085  2.755 1.000 1.00000 2.430 1.000      0.915  23.000
 1093 2.460 2.121  2.799 1.000 1.00000 2.450 1.000      1.829  23.000
 1094 2.440 2.103  2.777 1.000 1.00000 2.440 1.000      1.820  23.000
 1095 2.530 2.184  2.876 1.000 1.00000 2.530 1.000     11.356  23.000
 1096 2.380 2.049  2.711 1.000 1.00000 2.390 1.000      0.798  23.000
 1097 2.370 2.040  2.700 1.000 1.00000 2.370 1.000      1.054  23.000
 1098 2.440 2.103  2.777 1.000 1.00000 2.440 1.000      2.306  23.000
 1099 2.430 2.094  2.766 1.000 1.00000 2.430 1.000      0.980  23.000
 1100 2.440 2.103  2.777 1.000 1.00000 2.440 1.000      2.208  23.000
 1101 2.380 2.049  2.711 1.000 1.00000 2.390 1.000      0.443  23.000
 1102 2.360 2.031  2.689 1.000 1.00000 2.360 1.000      1.658  23.000
 1103 2.430 2.094  2.766 1.000 1.00000 2.440 1.000      0.983  23.000
 1104 2.630 2.274  2.986 1.000 1.00000 2.630 1.000     29.226  23.000
 1105 2.430 2.094  2.766 1.000 1.00000 2.440 1.000      1.535  23.000
 1106 2.460 2.121  2.799 1.000 1.00000 2.450 1.000      6.151  23.000
 1107 2.470 2.130  2.810 1.000 1.00000 2.470 1.000      3.413  23.000
 1108 2.410 2.076  2.744 1.000 1.00000 2.410 1.000      3.481  23.000
 1109 2.530 2.184  2.876 1.000 1.00000 2.530 1.000      9.000  23.000
 1110 2.420 2.085  2.755 1.000 1.00000 2.430 1.000      0.781  23.000
 1111 2.450 2.112  2.788 1.000 1.00000 2.450 1.000      4.368  23.000
 1112 2.580 2.229  2.931 1.000 1.00000 2.580 1.000     23.042  23.000
 1113 2.580 2.229  2.931 1.000 1.00000 2.580 1.000     25.773  23.000
 1114 2.480 2.139  2.821 1.000 1.00000 2.480 1.000      2.676  23.000
 1115 2.330 2.004  2.656 1.000 1.00000 2.330 1.000      8.768  23.000
 1116 2.560 2.211  2.909 1.000 1.00000 2.560 1.000     18.261  23.000
 1117 2.400 2.067  2.733 1.000 1.00000 2.400 1.000      0.200  23.000
 1118 2.390 2.058  2.722 1.000 1.00000 2.390 1.000      0.619  23.000
 1119 2.370 2.040  2.700 1.000 1.00000 2.370 1.000      1.106  23.000
 1120 2.340 2.013  2.667 1.000 1.00000 2.340 1.000      5.225  23.000
 1121 2.480 2.139  2.821 1.000 1.00000 2.480 1.000      8.605  23.000
 1122 2.530 2.184  2.876 1.000 1.00000 2.540 1.000      8.221  23.000
 1123 2.480 2.139  2.821 1.000 1.00000 2.480 1.000      5.238  23.000
 1124 2.530 2.184  2.876 1.000 1.00000 2.540 1.000      6.825  23.000
 1125 2.450 2.112  2.788 1.000 1.00000 2.450 1.000      2.033  23.000
 1126 2.490 2.148  2.832 1.000 1.00000 2.480 1.000      9.265  23.000
 1127 2.440 2.103  2.777 1.000 1.00000 2.440 1.000      3.619  23.000
 1128 2.460 2.121  2.799 1.000 1.00000 2.450 1.000      4.721  23.000
 1129 2.490 2.148  2.832 1.000 1.00000 2.480 1.000     11.438  23.000
 1130 2.560 2.211  2.909 1.000 1.00000 2.570 1.000     18.341  23.000
 1131 2.540 2.193  2.887 1.000 1.00000 2.540 1.000     11.948  23.000
 1132 2.410 2.076  2.744 1.000 1.00000 2.400 1.000      0.277  23.000
 1133 2.530 2.184  2.876 1.000 1.00000 2.530 1.000      9.980  23.000
 1134 2.400 2.067  2.733 1.000 1.00000 2.400 1.000      0.279  23.000
 1135 2.540 2.193  2.887 1.000 1.00000 2.540 1.000     14.899  23.000
 1136 2.390 2.058  2.722 1.000 1.00000 2.390 1.000      0.225  23.000
 1137 2.530 2.184  2.876 1.000 1.00000 2.530 1.000     11.800  23.000
 1138 2.360 2.031  2.689 1.000 1.00000 2.350 1.000      2.881  23.000
 1139 2.520 2.175  2.865 1.000 1.00000 2.530 1.000     10.058  23.000
 1140 2.360 2.031  2.689 1.000 1.00000 2.360 1.000      2.045  23.000
 1141 2.400 2.067  2.733 1.000 1.00000 2.400 1.000      0.219  23.000
 1142 2.390 2.058  2.722 1.000 1.00000 2.390 1.000      0.260  23.000
 1143 2.480 2.139  2.821 1.000 1.00000 2.480 1.000      4.541  23.000
 1144 2.420 2.085  2.755 1.000 1.00000 2.430 1.000      1.150  23.000
 1145 2.400 2.067  2.733 1.000 1.00000 2.400 1.000      0.210  23.000
 1146 2.430 2.094  2.766 1.000 1.00000 2.430 1.000      0.771  23.000
 1147 2.480 2.139  2.821 1.000 1.00000 2.480 1.000      7.616  23.000
 1148 2.540 2.193  2.887 1.000 1.00000 2.540 1.000     13.579  23.000
 1149 2.340 2.013  2.667 1.000 1.00000 2.340 1.000      6.382  23.000
 1150 2.430 2.094  2.766 1.000 1.00000 2.430 1.000      0.617  23.000
 1151 2.340 2.013  2.667 1.000 1.00000 2.340 1.000      3.488  23.000
 1152 2.370 2.040  2.700 1.000 1.00000 2.370 1.000      3.541  23.000
 1153 2.450 2.112  2.788 1.000 1.00000 2.450 1.000      1.222  23.000
 1154 2.540 2.193  2.887 1.000 1.00000 2.540 1.000     11.466  23.000
 1155 2.410 2.076  2.744 1.000 1.00000 2.410 1.000      0.358  23.000
 1156 2.540 2.193  2.887 1.000 1.00000 2.540 1.000     11.293  23.000
 1157 2.440 2.103  2.777 1.000 1.00000 2.440 1.000      2.569  23.000
 1158 2.530 2.184  2.876 1.000 1.00000 2.540 1.000     11.734  23.000
 1159 2.410 2.076  2.744 1.000 1.00000 2.410 1.000      0.412  23.000
 1160 2.420 2.085  2.755 1.000 1.00000 2.410 1.000      1.016  23.000
 1161 2.370 2.040  2.700 1.000 1.00000 2.360 1.000      2.002  23.000
 1162 2.470 2.130  2.810 1.000 1.00000 2.470 1.000      4.931  23.000
 1163 2.380 2.049  2.711 1.000 1.00000 2.380 1.000      0.501  23.000
 1164 2.370 2.040  2.700 1.000 1.00000 2.360 1.000      2.775  23.000
 1165 2.400 2.067  2.733 1.000 1.00000 2.400 1.000      1.196  23.000
 1166 2.430 2.094  2.766 1.000 1.00000 2.440 1.000      0.980  23.000
 1167 2.420 2.085  2.755 1.000 1.00000 2.410 1.000      0.874  23.000
 1168 2.490 2.148  2.832 1.000 1.00000 2.480 1.000      9.477  23.000
 1169 2.540 2.193  2.887 1.000 1.00000 2.540 1.000      5.696  23.000
 1170 2.340 2.013  2.667 1.000 1.00000 2.340 1.000      5.118  23.000
 1171 2.360 2.031  2.689 1.000 1.00000 2.360 1.000      2.113  23.000
 1172 2.470 2.130  2.810 1.000 1.00000 2.470 1.000      5.473  23.000
 1173 2.530 2.184  2.876 1.000 1.00000 2.530 1.000      8.574  23.000
 1174 2.480 2.139  2.821 1.000 1.00000 2.480 1.000      7.164  23.000
 1175 2.480 2.139  2.821 1.000 1.00000 2.480 1.000      3.496  23.000
 1176 2.520 2.175  2.865 1.000 1.00000 2.530 1.000      9.969  23.000
 1177 2.450 2.112  2.788 1.000 1.00000 2.450 1.000      1.474  23.000
 1178 2.440 2.103  2.777 1.000 1.00000 2.440 1.000      2.518  23.000
 1179 2.390 2.058  2.722 1.000 1.00000 2.390 1.000      0.422  23.000
 1180 2.540 2.193  2.887 1.000 1.00000 2.540 1.000      9.615  23.000
 1181 2.400 2.067  2.733 1.000 1.00000 2.400 1.000      0.593  23.000
 1182 2.360 2.031  2.689 1.000 1.00000 2.360 1.000      1.396  23.000
 1183 2.440 2.103  2.777 1.000 1.00000 2.440 1.000      3.249  23.000
 1184 2.430 2.094  2.766 1.000 1.00000 2.440 1.000      1.175  23.000
 1185 2.470 2.130  2.810 1.000 1.00000 2.470 1.000      3.095  23.000
 1186 2.430 2.094  2.766 1.000 1.00000 2.440 1.000      1.164  23.000
 1187 2.540 2.193  2.887 1.000 1.00000 2.540 1.000      8.502  23.000
 1188 2.530 2.184  2.876 1.000 1.00000 2.530 1.000      7.758  23.000
 1189 2.450 2.112  2.788 1.000 1.00000 2.450 1.000      1.869  23.000
 1190 2.460 2.121  2.799 1.000 1.00000 2.450 1.000      4.145  23.000
 1191 2.540 2.193  2.887 1.000 1.00000 2.540 1.000      9.255  23.000
 1192 2.540 2.193  2.887 1.000 1.00000 2.540 1.000     12.532  23.000
 1193 2.390 2.058  2.722 1.000 1.00000 2.390 1.000      1.017  23.000
 1194 2.380 2.049  2.711 1.000 1.00000 2.380 1.000      1.022  23.000
 1195 2.420 2.085  2.755 1.000 1.00000 2.430 1.000      0.610  23.000
 1196 2.480 2.139  2.821 1.000 1.00000 2.480 1.000      8.303  23.000
 1197 2.410 2.076  2.744 1.000 1.00000 2.410 1.000      0.343  23.000
 1198 2.460 2.121  2.799 1.000 1.00000 2.450 1.000      3.497  23.000
 1199 2.390 2.058  2.722 1.000 1.00000 2.390 1.000      0.395  23.000
 1200 2.430 2.094  2.766 1.000 1.00000 2.440 1.000      0.817  23.000
 1201 2.340 2.013  2.667 1.000 1.00000 2.340 1.000      5.852  23.000
 1202 2.410 2.076  2.744 1.000 1.00000 2.400 1.000      0.890  23.000
 1203 2.560 2.211  2.909 1.000 1.00000 2.550 1.000     21.030  23.000
 1204 2.360 2.031  2.689 1.000 1.00000 2.360 1.000      1.720  23.000
 1205 2.400 2.067  2.733 1.000 1.00000 2.400 1.000      0.206  23.000
 1206 2.400 2.067  2.733 1.000 1.00000 2.400 1.000      1.418  23.000
 1207 2.550 2.202  2.898 1.000 1.00000 2.550 1.000     21.606  23.000
 1208 2.480 2.139  2.821 1.000 1.00000 2.480 1.000      8.336  23.000
 1209 2.500 2.157  2.843 1.000 1.00000 2.490 1.000     10.804  23.000
 1210 2.470 2.130  2.810 1.000 1.00000 2.470 1.000      5.673  23.000
 1211 2.380 2.049  2.711 1.000 1.00000 2.380 1.000      0.588  23.000
 1212 2.390 2.058  2.722 1.000 1.00000 2.390 1.000      1.116  23.000
 1213 2.430 2.094  2.766 1.000 1.00000 2.430 1.000      0.614  23.000
 1214 2.460 2.121  2.799 1.000 1.00000 2.450 1.000      4.372  23.000
 1215 2.490 2.148  2.832 1.000 1.00000 2.490 1.000      4.870  23.000
 1216 2.560 2.211  2.909 1.000 1.00000 2.550 1.000     17.435  23.000
 1217 2.430 2.094  2.766 1.000 1.00000 2.440 1.000      0.918  23.000
 1218 2.330 2.004  2.656 1.000 1.00000 2.330 1.000     11.644  23.000
 1219 2.470 2.130  2.810 1.000 1.00000 2.470 1.000      6.403  23.000
 1220 2.540 2.193  2.887 1.000 1.00000 2.540 1.000     12.638  23.000
 1221 2.520 2.175  2.865 1.000 1.00000 2.530 1.000     10.671  23.000
 1222 2.430 2.094  2.766 1.000 1.00000 2.440 1.000      0.789  23.000
 1223 2.330 2.004  2.656 1.000 1.00000 2.330 1.000      8.136  23.000
 1224 2.450 2.112  2.788 1.000 1.00000 2.450 1.000      2.944  23.000
 1225 2.530 2.184  2.876 1.000 1.00000 2.530 1.000     12.085  23.000
 1226 2.480 2.139  2.821 1.000 1.00000 2.480 1.000      5.695  23.000
 1227 2.410 2.076  2.744 1.000 1.00000 2.400 1.000      0.278  23.000
 1228 2.440 2.103  2.777 1.000 1.00000 2.440 1.000      4.221  23.000
 1229 2.380 2.049  2.711 1.000 1.00000 2.380 1.000      3.011  23.000
 1230 2.450 2.112  2.788 1.000 1.00000 2.450 1.000      1.822  23.000
 1231 2.390 2.058  2.722 1.000 1.00000 2.390 1.000      0.762  23.000
 1232 2.450 2.112  2.788 1.000 1.00000 2.450 1.000      3.708  23.000
 1233 2.420 2.085  2.755 1.000 1.00000 2.430 1.000      3.171  23.000
 1234 2.460 2.121  2.799 1.000 1.00000 2.450 1.000      2.501  23.000
 1235 2.450 2.112  2.788 1.000 1.00000 2.450 1.000      4.234  23.000
 1236 2.500 2.157  2.843 1.000 1.00000 2.490 1.000      8.782  23.000
 1237 2.450 2.112  2.788 1.000 1.00000 2.450 1.000      5.094  23.000
 1238 2.430 2.094  2.766 1.000 1.00000 2.430 1.000      0.982  23.000
 1239 2.380 2.049  2.711 1.000 1.00000 2.390 1.000      0.630  23.000
 1240 2.480 2.139  2.821 1.000 1.00000 2.480 1.000      8.336  23.000
 1241 2.470 2.130  2.810 1.000 1.00000 2.470 1.000      3.749  23.000
 1242 2.480 2.139  2.821 1.000 1.00000 2.480 1.000      4.026  23.000
 1243 2.390 2.058  2.722 1.000 1.00000 2.390 1.000      0.361  23.000
 1244 2.540 2.193  2.887 1.000 1.00000 2.540 1.000      9.518  23.000
 1245 2.460 2.121  2.799 1.000 1.00000 2.450 1.000      4.290  23.000
 1246 2.540 2.193  2.887 1.000 1.00000 2.540 1.000      9.533  23.000
 1247 2.450 2.112  2.788 1.000 1.00000 2.450 1.000      1.662  23.000
 1248 2.370 2.040  2.700 1.000 1.00000 2.370 1.000      0.830  23.000
 1249 2.440 2.103  2.777 1.000 1.00000 2.440 1.000      2.545  23.000
 1250 2.350 2.022  2.678 1.000 1.00000 2.350 1.000      4.027  23.000
 1251 2.370 2.040  2.700 1.000 1.00000 2.360 1.000      1.622  23.000
 1252 2.500 2.157  2.843 1.000 1.00000 2.490 1.000      8.455  23.000
 1253 2.540 2.193  2.887 1.000 1.00000 2.540 1.000     12.656  23.000
 1254 2.540 2.193  2.887 1.000 1.00000 2.540 1.000     17.452  23.000
 1255 2.360 2.031  2.689 1.000 1.00000 2.360 1.000      2.916  23.000
 1256 2.440 2.103  2.777 1.000 1.00000 2.440 1.000      1.608  23.000
 1257 2.370 2.040  2.700 1.000 1.00000 2.360 1.000      2.130  23.000
 1258 2.390 2.058  2.722 1.000 1.00000 2.390 1.000      0.289  23.000
 1259 2.330 2.004  2.656 1.000 1.00000 2.330 1.000      9.314  23.000
 1260 2.450 2.112  2.788 1.000 1.00000 2.450 1.000      1.185  23.000
 1261 2.370 2.040  2.700 1.000 1.00000 2.370 1.000      0.934  23.000
 1262 2.460 2.121  2.799 1.000 1.00000 2.450 1.000      3.014  23.000
 1263 2.430 2.094  2.766 1.000 1.00000 2.430 1.000      0.604  23.000
 1264 2.480 2.139  2.821 1.000 1.00000 2.480 1.000      7.874  23.000
 1265 2.540 2.193  2.887 1.000 1.00000 2.540 1.000      9.272  23.000
 1266 2.540 2.193  2.887 1.000 1.00000 2.540 1.000      9.777  23.000
 1267 2.440 2.103  2.777 1.000 1.00000 2.440 1.000      1.373  23.000
 1268 2.430 2.094  2.766 1.000 1.00000 2.440 1.000      1.292  23.000
 1269 2.470 2.130  2.810 1.000 1.00000 2.470 1.000      2.354  23.000
 1270 2.470 2.130  2.810 1.000 1.00000 2.470 1.000      5.519  23.000
 1271 2.450 2.112  2.788 1.000 1.00000 2.450 1.000      3.246  23.000
 1272 2.420 2.085  2.755 1.000 1.00000 2.430 1.000      0.533  23.000
 1273 2.440 2.103  2.777 1.000 1.00000 2.440 1.000      1.603  23.000
 1274 2.420 2.085  2.755 1.000 1.00000 2.420 1.000      0.699  23.000
 1275 2.540 2.193  2.887 1.000 1.00000 2.540 1.000     10.554  23.000
 1276 2.380 2.049  2.711 1.000 1.00000 2.390 1.000      0.818  23.000
 1277 2.480 2.139  2.821 1.000 1.00000 2.480 1.000      5.416  23.000
 1278 2.430 2.094  2.766 1.000 1.00000 2.440 1.000      0.763  23.000
 1279 2.340 2.013  2.667 1.000 1.00000 2.340 1.000      4.769  23.000
 1280 2.360 2.031  2.689 1.000 1.00000 2.360 1.000      2.590  23.000
 1281 2.340 2.013  2.667 1.000 1.00000 2.340 1.000      3.676  23.000
 1282 2.540 2.193  2.887 1.000 1.00000 2.540 1.000     14.187  23.000
 1283 2.330 2.004  2.656 1.000 1.00000 2.330 1.000     10.326  23.000
 1284 2.390 2.058  2.722 1.000 1.00000 2.390 1.000      0.244  23.000
 1285 2.440 2.103  2.777 1.000 1.00000 2.440 1.000      2.316  23.000
 1286 2.480 2.139  2.821 1.000 1.00000 2.480 1.000      8.470  23.000
 1287 2.460 2.121  2.799 1.000 1.00000 2.450 1.000      6.072  23.000
 1288 2.340 2.013  2.667 1.000 1.00000 2.340 1.000      3.939  23.000
 1289 2.380 2.049  2.711 1.000 1.00000 2.380 1.000      0.483  23.000
 1290 2.370 2.040  2.700 1.000 1.00000 2.360 1.000      1.457  23.000
 1291 2.570 2.220  2.920 1.000 1.00000 2.570 1.000     13.552  23.000
 1292 2.400 2.067  2.733 1.000 1.00000 2.400 1.000      0.263  23.000
 1293 2.430 2.094  2.766 1.000 1.00000 2.430 1.000      0.795  23.000
 1294 2.380 2.049  2.711 1.000 1.00000 2.380 1.000      4.799  23.000
 1295 2.540 2.193  2.887 1.000 1.00000 2.540 1.000      8.873  23.000
 1296 2.420 2.085  2.755 1.000 1.00000 2.410 1.000      0.600  23.000
 1297 2.410 2.076  2.744 1.000 1.00000 2.410 1.000      0.858  23.000
 1298 2.540 2.193  2.887 1.000 1.00000 2.540 1.000     10.988  23.000
 1299 2.490 2.148  2.832 1.000 1.00000 2.480 1.000      5.080  23.000
 1300 2.340 2.013  2.667 1.000 1.00000 2.340 1.000      8.416  23.000
