## File LOS/SB2_B2004a_2.4z_Mags_700.bpz  Fri Aug 12 23:39:08 2016
##
##Parameters used to run BPZ:
##
##AB_DIR=/home/lidenscheng/bpz-1.99.3//AB/
##ADD_CONTINUOUS_PROB=None
##ADD_SPEC_PROB=None
##CHECK=LOS/SB2_B2004a_2.4z_Mags_700.flux_comparison
##COLOR=no
##COLUMNS=losNoErrors.columns
##CONVOLVE_P=yes
##DELTA_M_0=0.0
##DZ=0.01
##EXCLUDE=none
##FC=None
##FILTER_DIR=/home/lidenscheng/MK_DirectSim/filters/
##GET_Z=yes
##INPUT=LOS/SB2_B2004a_2.4z_Mags_700.txt
##INTERACTIVE=yes
##INTERP=0
##MADAU=no
##MAG=yes
##MEAN_IGM=yes
##MERGE_PEAKS=no
##MIN_MAGERR=0.001
##MIN_RMS=0.05
##NEW_AB=no
##NMAX=None
##NTYPES=None
##N_PEAKS=1
##ODDS=0.95
##ONLY_TYPE=no
##OUTPUT=LOS/SB2_B2004a_2.4z_Mags_700.bpz
##PHOTO_ERRORS=no
##PLOTS=no
##PRIOR=none
##PROBS=no
##PROBS2=no
##PROBS_LITE=LOS/SB2_B2004a_2.4z_Mags_700.probs
##P_MIN=0.01
##SED_DIR=/home/lidenscheng/MK_DirectSim/SEDs/
##SPECTRA=SB2.list
##VERBOSE=yes
##ZC=None
##ZMAX=10.0
##ZMIN=0.01
##ZP_OFFSETS=0.0
##Z_THR=0
##
##Column information
##
# 1 ID
# 2 Z_B
# 3 Z_B_MIN
# 4 Z_B_MAX
# 5 T_B
# 6 ODDS    
# 7 Z_ML
# 8 T_ML
# 9 CHI-SQUARED
# 10 M_0
##
    1 2.360 2.031  2.689 1.000 1.00000 2.350 1.000      5.309  23.000
    2 2.370 2.040  2.700 1.000 1.00000 2.380 1.000      0.814  23.000
    3 2.450 2.112  2.788 1.000 1.00000 2.450 1.000      2.518  23.000
    4 2.440 2.103  2.777 1.000 1.00000 2.440 1.000      2.059  23.000
    5 2.530 2.184  2.876 1.000 1.00000 2.540 1.000      8.967  23.000
    6 2.440 2.103  2.777 1.000 1.00000 2.440 1.000      1.739  23.000
    7 2.620 2.265  2.975 1.000 1.00000 2.620 1.000     28.883  23.000
    8 2.560 2.211  2.909 1.000 1.00000 2.560 1.000     20.527  23.000
    9 2.410 2.076  2.744 1.000 1.00000 2.410 1.000      1.411  23.000
   10 2.460 2.121  2.799 1.000 1.00000 2.450 1.000      1.685  23.000
   11 2.370 2.040  2.700 1.000 1.00000 2.360 1.000      1.283  23.000
   12 2.440 2.103  2.777 1.000 1.00000 2.440 1.000      2.366  23.000
   13 2.410 2.076  2.744 1.000 1.00000 2.410 1.000      0.301  23.000
   14 2.530 2.184  2.876 1.000 1.00000 2.540 1.000      6.529  23.000
   15 2.460 2.121  2.799 1.000 1.00000 2.450 1.000      1.895  23.000
   16 2.380 2.049  2.711 1.000 1.00000 2.380 1.000      0.810  23.000
   17 2.380 2.049  2.711 1.000 1.00000 2.380 1.000      0.770  23.000
   18 2.540 2.193  2.887 1.000 1.00000 2.540 1.000     14.643  23.000
   19 2.350 2.022  2.678 1.000 1.00000 2.350 1.000      3.788  23.000
   20 2.450 2.112  2.788 1.000 1.00000 2.450 1.000      2.867  23.000
   21 2.470 2.130  2.810 1.000 1.00000 2.470 1.000      3.950  23.000
   22 2.490 2.148  2.832 1.000 1.00000 2.490 1.000      4.347  23.000
   23 2.420 2.085  2.755 1.000 1.00000 2.420 1.000      0.623  23.000
   24 2.370 2.040  2.700 1.000 1.00000 2.370 1.000      1.532  23.000
   25 2.390 2.058  2.722 1.000 1.00000 2.390 1.000      1.045  23.000
   26 2.400 2.067  2.733 1.000 1.00000 2.400 1.000      0.201  23.000
   27 2.390 2.058  2.722 1.000 1.00000 2.390 1.000      0.220  23.000
   28 2.390 2.058  2.722 1.000 1.00000 2.390 1.000      0.318  23.000
   29 2.420 2.085  2.755 1.000 1.00000 2.430 1.000      0.563  23.000
   30 2.460 2.121  2.799 1.000 1.00000 2.470 1.000      4.650  23.000
   31 2.350 2.022  2.678 1.000 1.00000 2.350 1.000      3.550  23.000
   32 2.610 2.256  2.964 1.000 1.00000 2.610 1.000     29.090  23.000
   33 2.340 2.013  2.667 1.000 1.00000 2.340 1.000      3.484  23.000
   34 2.560 2.211  2.909 1.000 1.00000 2.560 1.000     17.423  23.000
   35 2.490 2.148  2.832 1.000 1.00000 2.480 1.000     11.230  23.000
   36 2.380 2.049  2.711 1.000 1.00000 2.380 1.000      2.971  23.000
   37 2.430 2.094  2.766 1.000 1.00000 2.440 1.000      0.905  23.000
   38 2.480 2.139  2.821 1.000 1.00000 2.480 1.000      8.114  23.000
   39 2.430 2.094  2.766 1.000 1.00000 2.430 1.000      0.845  23.000
   40 2.470 2.130  2.810 1.000 1.00000 2.470 1.000      4.605  23.000
   41 2.440 2.103  2.777 1.000 1.00000 2.440 1.000      1.982  23.000
   42 2.430 2.094  2.766 1.000 1.00000 2.430 1.000      0.629  23.000
   43 2.540 2.193  2.887 1.000 1.00000 2.540 1.000      6.791  23.000
   44 2.440 2.103  2.777 1.000 1.00000 2.440 1.000      2.458  23.000
   45 2.380 2.049  2.711 1.000 1.00000 2.380 1.000      0.689  23.000
   46 2.430 2.094  2.766 1.000 1.00000 2.430 1.000      0.911  23.000
   47 2.490 2.148  2.832 1.000 1.00000 2.490 1.000     10.179  23.000
   48 2.370 2.040  2.700 1.000 1.00000 2.370 1.000      1.150  23.000
   49 2.620 2.265  2.975 1.000 1.00000 2.620 1.000     23.823  23.000
   50 2.440 2.103  2.777 1.000 1.00000 2.440 1.000      1.469  23.000
   51 2.400 2.067  2.733 1.000 1.00000 2.400 1.000      1.415  23.000
   52 2.460 2.121  2.799 1.000 1.00000 2.450 1.000      3.521  23.000
   53 2.460 2.121  2.799 1.000 1.00000 2.450 1.000      3.408  23.000
   54 2.380 2.049  2.711 1.000 1.00000 2.380 1.000      0.958  23.000
   55 2.430 2.094  2.766 1.000 1.00000 2.430 1.000      0.691  23.000
   56 2.360 2.031  2.689 1.000 1.00000 2.350 1.000      5.316  23.000
   57 2.420 2.085  2.755 1.000 1.00000 2.420 1.000      0.763  23.000
   58 2.470 2.130  2.810 1.000 1.00000 2.470 1.000      5.785  23.000
   59 2.400 2.067  2.733 1.000 1.00000 2.400 1.000      0.285  23.000
   60 2.570 2.220  2.920 1.000 1.00000 2.570 1.000     24.534  23.000
   61 2.410 2.076  2.744 1.000 1.00000 2.410 1.000      0.506  23.000
   62 2.460 2.121  2.799 1.000 1.00000 2.450 1.000      3.018  23.000
   63 2.460 2.121  2.799 1.000 1.00000 2.470 1.000      2.279  23.000
   64 2.450 2.112  2.788 1.000 1.00000 2.450 1.000      2.591  23.000
   65 2.330 2.004  2.656 1.000 1.00000 2.330 1.000     17.558  23.000
   66 2.530 2.184  2.876 1.000 1.00000 2.530 1.000      8.121  23.000
   67 2.450 2.112  2.788 1.000 1.00000 2.450 1.000      2.105  23.000
   68 2.380 2.049  2.711 1.000 1.00000 2.380 1.000      0.512  23.000
   69 2.420 2.085  2.755 1.000 1.00000 2.410 1.000      1.658  23.000
   70 2.560 2.211  2.909 1.000 1.00000 2.560 1.000     21.716  23.000
   71 2.540 2.193  2.887 1.000 1.00000 2.540 1.000     16.428  23.000
   72 2.430 2.094  2.766 1.000 1.00000 2.440 1.000      1.158  23.000
   73 2.430 2.094  2.766 1.000 1.00000 2.440 1.000      0.858  23.000
   74 2.460 2.121  2.799 1.000 1.00000 2.470 1.000      3.369  23.000
   75 2.580 2.229  2.931 1.000 1.00000 2.580 1.000     15.818  23.000
   76 2.400 2.067  2.733 1.000 1.00000 2.400 1.000      0.319  23.000
   77 2.440 2.103  2.777 1.000 1.00000 2.440 1.000      1.811  23.000
   78 2.570 2.220  2.920 1.000 1.00000 2.570 1.000     19.385  23.000
   79 2.540 2.193  2.887 1.000 1.00000 2.540 1.000      7.483  23.000
   80 2.430 2.094  2.766 1.000 1.00000 2.430 1.000      0.605  23.000
   81 2.480 2.139  2.821 1.000 1.00000 2.480 1.000      6.850  23.000
   82 2.450 2.112  2.788 1.000 1.00000 2.450 1.000      3.356  23.000
   83 2.470 2.130  2.810 1.000 1.00000 2.470 1.000      2.814  23.000
   84 2.540 2.193  2.887 1.000 1.00000 2.540 1.000     12.902  23.000
   85 2.600 2.247  2.953 1.000 1.00000 2.590 1.000     20.666  23.000
   86 2.490 2.148  2.832 1.000 1.00000 2.490 1.000      5.513  23.000
   87 2.490 2.148  2.832 1.000 1.00000 2.480 1.000      9.521  23.000
   88 2.360 2.031  2.689 1.000 1.00000 2.350 1.000      2.799  23.000
   89 2.360 2.031  2.689 1.000 1.00000 2.350 1.000      2.705  23.000
   90 2.540 2.193  2.887 1.000 1.00000 2.540 1.000     14.348  23.000
   91 2.490 2.148  2.832 1.000 1.00000 2.480 1.000      5.975  23.000
   92 2.540 2.193  2.887 1.000 1.00000 2.540 1.000     14.188  23.000
   93 2.420 2.085  2.755 1.000 1.00000 2.430 1.000      0.565  23.000
   94 2.540 2.193  2.887 1.000 1.00000 2.540 1.000     15.615  23.000
   95 2.480 2.139  2.821 1.000 1.00000 2.480 1.000      3.924  23.000
   96 2.450 2.112  2.788 1.000 1.00000 2.450 1.000      1.909  23.000
   97 2.350 2.022  2.678 1.000 1.00000 2.350 1.000      7.464  23.000
   98 2.450 2.112  2.788 1.000 1.00000 2.450 1.000      2.060  23.000
   99 2.560 2.211  2.909 1.000 1.00000 2.560 1.000     19.583  23.000
  100 2.360 2.031  2.689 1.000 1.00000 2.360 1.000      2.356  23.000
  101 2.410 2.076  2.744 1.000 1.00000 2.410 1.000      0.457  23.000
  102 2.540 2.193  2.887 1.000 1.00000 2.540 1.000     13.264  23.000
  103 2.450 2.112  2.788 1.000 1.00000 2.450 1.000      4.268  23.000
  104 2.410 2.076  2.744 1.000 1.00000 2.410 1.000      0.331  23.000
  105 2.580 2.229  2.931 1.000 1.00000 2.580 1.000     22.259  23.000
  106 2.450 2.112  2.788 1.000 1.00000 2.440 1.000      4.029  23.000
  107 2.390 2.058  2.722 1.000 1.00000 2.390 1.000      0.451  23.000
  108 2.350 2.022  2.678 1.000 1.00000 2.350 1.000      4.867  23.000
  109 2.440 2.103  2.777 1.000 1.00000 2.440 1.000      1.857  23.000
  110 2.540 2.193  2.887 1.000 1.00000 2.540 1.000      8.862  23.000
  111 2.470 2.130  2.810 1.000 1.00000 2.470 1.000      6.480  23.000
  112 2.350 2.022  2.678 1.000 1.00000 2.350 1.000      6.895  23.000
  113 2.470 2.130  2.810 1.000 1.00000 2.470 1.000      4.572  23.000
  114 2.540 2.193  2.887 1.000 1.00000 2.540 1.000     16.014  23.000
  115 2.400 2.067  2.733 1.000 1.00000 2.400 1.000      1.026  23.000
  116 2.440 2.103  2.777 1.000 1.00000 2.440 1.000      1.124  23.000
  117 2.440 2.103  2.777 1.000 1.00000 2.440 1.000      2.973  23.000
  118 2.430 2.094  2.766 1.000 1.00000 2.440 1.000      1.045  23.000
  119 2.450 2.112  2.788 1.000 1.00000 2.450 1.000      1.149  23.000
  120 2.540 2.193  2.887 1.000 1.00000 2.540 1.000      8.915  23.000
  121 2.380 2.049  2.711 1.000 1.00000 2.380 1.000      2.015  23.000
  122 2.370 2.040  2.700 1.000 1.00000 2.360 1.000      2.162  23.000
  123 2.540 2.193  2.887 1.000 1.00000 2.540 1.000      8.346  23.000
  124 2.540 2.193  2.887 1.000 1.00000 2.540 1.000     15.838  23.000
  125 2.430 2.094  2.766 1.000 1.00000 2.440 1.000      1.057  23.000
  126 2.480 2.139  2.821 1.000 1.00000 2.480 1.000      7.962  23.000
  127 2.490 2.148  2.832 1.000 1.00000 2.480 1.000      5.925  23.000
  128 2.340 2.013  2.667 1.000 1.00000 2.340 1.000      7.175  23.000
  129 2.420 2.085  2.755 1.000 1.00000 2.410 1.000      0.923  23.000
  130 2.370 2.040  2.700 1.000 1.00000 2.360 1.000      1.858  23.000
  131 2.430 2.094  2.766 1.000 1.00000 2.440 1.000      0.817  23.000
  132 2.490 2.148  2.832 1.000 1.00000 2.480 1.000      8.469  23.000
  133 2.470 2.130  2.810 1.000 1.00000 2.470 1.000      4.104  23.000
  134 2.530 2.184  2.876 1.000 1.00000 2.530 1.000     12.838  23.000
  135 2.410 2.076  2.744 1.000 1.00000 2.410 1.000      0.361  23.000
  136 2.430 2.094  2.766 1.000 1.00000 2.430 1.000      1.488  23.000
  137 2.460 2.121  2.799 1.000 1.00000 2.450 1.000      5.164  23.000
  138 2.420 2.085  2.755 1.000 1.00000 2.430 1.000      1.084  23.000
  139 2.540 2.193  2.887 1.000 1.00000 2.540 1.000      6.560  23.000
  140 2.420 2.085  2.755 1.000 1.00000 2.420 1.000      0.811  23.000
  141 2.380 2.049  2.711 1.000 1.00000 2.380 1.000      1.065  23.000
  142 2.340 2.013  2.667 1.000 1.00000 2.340 1.000      5.343  23.000
  143 2.450 2.112  2.788 1.000 1.00000 2.450 1.000      1.786  23.000
  144 2.450 2.112  2.788 1.000 1.00000 2.450 1.000      2.490  23.000
  145 2.400 2.067  2.733 1.000 1.00000 2.400 1.000      0.353  23.000
  146 2.410 2.076  2.744 1.000 1.00000 2.410 1.000      1.182  23.000
  147 2.550 2.202  2.898 1.000 1.00000 2.550 1.000     16.507  23.000
  148 2.460 2.121  2.799 1.000 1.00000 2.450 1.000      3.051  23.000
  149 2.390 2.058  2.722 1.000 1.00000 2.390 1.000      0.415  23.000
  150 2.470 2.130  2.810 1.000 1.00000 2.470 1.000      2.401  23.000
  151 2.380 2.049  2.711 1.000 1.00000 2.380 1.000      0.774  23.000
  152 2.390 2.058  2.722 1.000 1.00000 2.390 1.000      0.219  23.000
  153 2.340 2.013  2.667 1.000 1.00000 2.340 1.000      7.450  23.000
  154 2.410 2.076  2.744 1.000 1.00000 2.410 1.000      0.432  23.000
  155 2.560 2.211  2.909 1.000 1.00000 2.550 1.000     20.831  23.000
  156 2.400 2.067  2.733 1.000 1.00000 2.400 1.000      0.572  23.000
  157 2.500 2.157  2.843 1.000 1.00000 2.490 1.000      9.306  23.000
  158 2.440 2.103  2.777 1.000 1.00000 2.440 1.000      1.433  23.000
  159 2.460 2.121  2.799 1.000 1.00000 2.450 1.000      3.108  23.000
  160 2.350 2.022  2.678 1.000 1.00000 2.350 1.000      2.986  23.000
  161 2.450 2.112  2.788 1.000 1.00000 2.450 1.000      3.144  23.000
  162 2.360 2.031  2.689 1.000 1.00000 2.360 1.000      1.438  23.000
  163 2.490 2.148  2.832 1.000 1.00000 2.490 1.000      7.692  23.000
  164 2.460 2.121  2.799 1.000 1.00000 2.450 1.000      1.756  23.000
  165 2.430 2.094  2.766 1.000 1.00000 2.430 1.000      0.623  23.000
  166 2.350 2.022  2.678 1.000 1.00000 2.350 1.000      3.499  23.000
  167 2.480 2.139  2.821 1.000 1.00000 2.480 1.000      5.465  23.000
  168 2.570 2.220  2.920 1.000 1.00000 2.570 1.000     13.864  23.000
  169 2.390 2.058  2.722 1.000 1.00000 2.390 1.000      0.276  23.000
  170 2.560 2.211  2.909 1.000 1.00000 2.570 1.000     24.064  23.000
  171 2.380 2.049  2.711 1.000 1.00000 2.380 1.000      0.701  23.000
  172 2.380 2.049  2.711 1.000 1.00000 2.380 1.000      0.880  23.000
  173 2.420 2.085  2.755 1.000 1.00000 2.410 1.000      0.506  23.000
  174 2.360 2.031  2.689 1.000 1.00000 2.360 1.000      2.829  23.000
  175 2.450 2.112  2.788 1.000 1.00000 2.450 1.000      1.754  23.000
  176 2.450 2.112  2.788 1.000 1.00000 2.450 1.000      3.124  23.000
  177 2.440 2.103  2.777 1.000 1.00000 2.440 1.000      1.998  23.000
  178 2.470 2.130  2.810 1.000 1.00000 2.470 1.000      7.489  23.000
  179 2.610 2.256  2.964 1.000 1.00000 2.610 1.000     16.882  23.000
  180 2.450 2.112  2.788 1.000 1.00000 2.450 1.000      1.736  23.000
  181 2.470 2.130  2.810 1.000 1.00000 2.470 1.000      6.373  23.000
  182 2.450 2.112  2.788 1.000 1.00000 2.450 1.000      1.196  23.000
  183 2.490 2.148  2.832 1.000 1.00000 2.480 1.000      8.247  23.000
  184 2.450 2.112  2.788 1.000 1.00000 2.450 1.000      1.511  23.000
  185 2.410 2.076  2.744 1.000 1.00000 2.410 1.000      0.396  23.000
  186 2.370 2.040  2.700 1.000 1.00000 2.370 1.000      1.020  23.000
  187 2.540 2.193  2.887 1.000 1.00000 2.540 1.000     13.274  23.000
  188 2.460 2.121  2.799 1.000 1.00000 2.450 1.000      2.224  23.000
  189 2.430 2.094  2.766 1.000 1.00000 2.430 1.000      0.879  23.000
  190 2.540 2.193  2.887 1.000 1.00000 2.540 1.000      9.104  23.000
  191 2.410 2.076  2.744 1.000 1.00000 2.410 1.000      1.620  23.000
  192 2.480 2.139  2.821 1.000 1.00000 2.480 1.000      5.095  23.000
  193 2.390 2.058  2.722 1.000 1.00000 2.390 1.000      0.387  23.000
  194 2.590 2.238  2.942 1.000 1.00000 2.590 1.000     19.843  23.000
  195 2.480 2.139  2.821 1.000 1.00000 2.480 1.000      8.867  23.000
  196 2.350 2.022  2.678 1.000 1.00000 2.350 1.000      5.569  23.000
  197 2.470 2.130  2.810 1.000 1.00000 2.470 1.000      2.649  23.000
  198 2.380 2.049  2.711 1.000 1.00000 2.380 1.000      0.527  23.000
  199 2.530 2.184  2.876 1.000 1.00000 2.540 1.000     10.692  23.000
  200 2.440 2.103  2.777 1.000 1.00000 2.440 1.000      4.565  23.000
  201 2.360 2.031  2.689 1.000 1.00000 2.360 1.000      1.213  23.000
  202 2.450 2.112  2.788 1.000 1.00000 2.450 1.000      1.631  23.000
  203 2.540 2.193  2.887 1.000 1.00000 2.540 1.000      9.916  23.000
  204 2.340 2.013  2.667 1.000 1.00000 2.340 1.000      5.356  23.000
  205 2.390 2.058  2.722 1.000 1.00000 2.390 1.000      0.672  23.000
  206 2.540 2.193  2.887 1.000 1.00000 2.540 1.000     10.350  23.000
  207 2.540 2.193  2.887 1.000 1.00000 2.540 1.000      7.966  23.000
  208 2.420 2.085  2.755 1.000 1.00000 2.430 1.000      0.659  23.000
  209 2.540 2.193  2.887 1.000 1.00000 2.540 1.000     13.750  23.000
  210 2.390 2.058  2.722 1.000 1.00000 2.390 1.000      0.216  23.000
  211 2.540 2.193  2.887 1.000 1.00000 2.540 1.000     12.049  23.000
  212 2.400 2.067  2.733 1.000 1.00000 2.400 1.000      0.249  23.000
  213 2.380 2.049  2.711 1.000 1.00000 2.380 1.000      0.673  23.000
  214 2.540 2.193  2.887 1.000 1.00000 2.540 1.000     17.002  23.000
  215 2.390 2.058  2.722 1.000 1.00000 2.390 1.000      2.055  23.000
  216 2.560 2.211  2.909 1.000 1.00000 2.560 1.000     13.208  23.000
  217 2.540 2.193  2.887 1.000 1.00000 2.540 1.000     12.176  23.000
  218 2.450 2.112  2.788 1.000 1.00000 2.450 1.000      2.905  23.000
  219 2.470 2.130  2.810 1.000 1.00000 2.470 1.000      6.213  23.000
  220 2.370 2.040  2.700 1.000 1.00000 2.360 1.000      3.162  23.000
  221 2.480 2.139  2.821 1.000 1.00000 2.480 1.000      5.184  23.000
  222 2.420 2.085  2.755 1.000 1.00000 2.430 1.000      0.638  23.000
  223 2.470 2.130  2.810 1.000 1.00000 2.470 1.000      6.568  23.000
  224 2.560 2.211  2.909 1.000 1.00000 2.570 1.000     11.282  23.000
  225 2.480 2.139  2.821 1.000 1.00000 2.480 1.000      8.640  23.000
  226 2.380 2.049  2.711 1.000 1.00000 2.380 1.000      1.137  23.000
  227 2.430 2.094  2.766 1.000 1.00000 2.440 1.000      1.038  23.000
  228 2.420 2.085  2.755 1.000 1.00000 2.430 1.000      0.690  23.000
  229 2.460 2.121  2.799 1.000 1.00000 2.470 1.000      6.873  23.000
  230 2.590 2.238  2.942 1.000 1.00000 2.590 1.000     21.832  23.000
  231 2.420 2.085  2.755 1.000 1.00000 2.430 1.000      0.728  23.000
  232 2.390 2.058  2.722 1.000 1.00000 2.390 1.000      0.334  23.000
  233 2.360 2.031  2.689 1.000 1.00000 2.350 1.000      3.818  23.000
  234 2.550 2.202  2.898 1.000 1.00000 2.550 1.000      8.618  23.000
  235 2.540 2.193  2.887 1.000 1.00000 2.540 1.000     10.060  23.000
  236 2.520 2.175  2.865 1.000 1.00000 2.530 1.000     10.831  23.000
  237 2.430 2.094  2.766 1.000 1.00000 2.430 1.000      0.737  23.000
  238 2.450 2.112  2.788 1.000 1.00000 2.450 1.000      2.462  23.000
  239 2.440 2.103  2.777 1.000 1.00000 2.440 1.000      1.975  23.000
  240 2.400 2.067  2.733 1.000 1.00000 2.400 1.000      0.238  23.000
  241 2.470 2.130  2.810 1.000 1.00000 2.470 1.000      5.178  23.000
  242 2.480 2.139  2.821 1.000 1.00000 2.480 1.000      2.616  23.000
  243 2.430 2.094  2.766 1.000 1.00000 2.430 1.000      0.810  23.000
  244 2.440 2.103  2.777 1.000 1.00000 2.440 1.000      1.697  23.000
  245 2.570 2.220  2.920 1.000 1.00000 2.570 1.000     24.267  23.000
  246 2.480 2.139  2.821 1.000 1.00000 2.480 1.000      4.888  23.000
  247 2.440 2.103  2.777 1.000 1.00000 2.440 1.000      1.057  23.000
  248 2.340 2.013  2.667 1.000 1.00000 2.340 1.000      4.002  23.000
  249 2.540 2.193  2.887 1.000 1.00000 2.540 1.000     10.068  23.000
  250 2.480 2.139  2.821 1.000 1.00000 2.480 1.000      8.785  23.000
  251 2.340 2.013  2.667 1.000 1.00000 2.340 1.000      7.999  23.000
  252 2.430 2.094  2.766 1.000 1.00000 2.440 1.000      0.922  23.000
  253 2.390 2.058  2.722 1.000 1.00000 2.390 1.000      2.804  23.000
  254 2.460 2.121  2.799 1.000 1.00000 2.450 1.000      2.602  23.000
  255 2.440 2.103  2.777 1.000 1.00000 2.440 1.000      2.519  23.000
  256 2.440 2.103  2.777 1.000 1.00000 2.440 1.000      2.515  23.000
  257 2.460 2.121  2.799 1.000 1.00000 2.450 1.000      4.001  23.000
  258 2.370 2.040  2.700 1.000 1.00000 2.380 1.000      0.781  23.000
  259 2.450 2.112  2.788 1.000 1.00000 2.450 1.000      2.521  23.000
  260 2.580 2.229  2.931 1.000 1.00000 2.580 1.000     25.481  23.000
  261 2.540 2.193  2.887 1.000 1.00000 2.540 1.000     10.736  23.000
  262 2.370 2.040  2.700 1.000 1.00000 2.360 1.000      2.234  23.000
  263 2.470 2.130  2.810 1.000 1.00000 2.470 1.000      3.783  23.000
  264 2.490 2.148  2.832 1.000 1.00000 2.480 1.000      9.101  23.000
  265 2.530 2.184  2.876 1.000 1.00000 2.530 1.000     11.333  23.000
  266 2.350 2.022  2.678 1.000 1.00000 2.340 1.000      3.650  23.000
  267 2.350 2.022  2.678 1.000 1.00000 2.350 1.000      2.959  23.000
  268 2.480 2.139  2.821 1.000 1.00000 2.480 1.000      5.894  23.000
  269 2.400 2.067  2.733 1.000 1.00000 2.400 1.000      0.239  23.000
  270 2.340 2.013  2.667 1.000 1.00000 2.340 1.000      6.311  23.000
  271 2.350 2.022  2.678 1.000 1.00000 2.340 1.000      3.981  23.000
  272 2.460 2.121  2.799 1.000 1.00000 2.450 1.000      2.994  23.000
  273 2.390 2.058  2.722 1.000 1.00000 2.390 1.000      1.199  23.000
  274 2.340 2.013  2.667 1.000 1.00000 2.340 1.000      5.137  23.000
  275 2.450 2.112  2.788 1.000 1.00000 2.450 1.000      2.798  23.000
  276 2.440 2.103  2.777 1.000 1.00000 2.440 1.000      2.513  23.000
  277 2.440 2.103  2.777 1.000 1.00000 2.440 1.000      1.437  23.000
  278 2.490 2.148  2.832 1.000 1.00000 2.480 1.000     10.283  23.000
  279 2.410 2.076  2.744 1.000 1.00000 2.410 1.000      0.554  23.000
  280 2.450 2.112  2.788 1.000 1.00000 2.450 1.000      4.086  23.000
  281 2.430 2.094  2.766 1.000 1.00000 2.440 1.000      1.303  23.000
  282 2.470 2.130  2.810 1.000 1.00000 2.480 1.000      4.578  23.000
  283 2.540 2.193  2.887 1.000 1.00000 2.540 1.000     10.613  23.000
  284 2.460 2.121  2.799 1.000 1.00000 2.450 1.000      2.188  23.000
  285 2.540 2.193  2.887 1.000 1.00000 2.540 1.000     11.147  23.000
  286 2.380 2.049  2.711 1.000 1.00000 2.380 1.000      0.448  23.000
  287 2.490 2.148  2.832 1.000 1.00000 2.480 1.000      7.263  23.000
  288 2.480 2.139  2.821 1.000 1.00000 2.480 1.000      7.778  23.000
  289 2.540 2.193  2.887 1.000 1.00000 2.540 1.000      7.806  23.000
  290 2.340 2.013  2.667 1.000 1.00000 2.340 1.000      5.498  23.000
  291 2.510 2.166  2.854 1.000 1.00000 2.530 1.000     10.430  23.000
  292 2.490 2.148  2.832 1.000 1.00000 2.490 1.000      7.038  23.000
  293 2.360 2.031  2.689 1.000 1.00000 2.350 1.000      2.745  23.000
  294 2.540 2.193  2.887 1.000 1.00000 2.540 1.000      9.205  23.000
  295 2.390 2.058  2.722 1.000 1.00000 2.390 1.000      0.504  23.000
  296 2.400 2.067  2.733 1.000 1.00000 2.400 1.000      0.531  23.000
  297 2.530 2.184  2.876 1.000 1.00000 2.530 1.000      8.296  23.000
  298 2.540 2.193  2.887 1.000 1.00000 2.540 1.000      6.993  23.000
  299 2.470 2.130  2.810 1.000 1.00000 2.470 1.000      7.170  23.000
  300 2.360 2.031  2.689 1.000 1.00000 2.350 1.000      5.931  23.000
  301 2.400 2.067  2.733 1.000 1.00000 2.400 1.000      0.266  23.000
  302 2.490 2.148  2.832 1.000 1.00000 2.480 1.000      8.582  23.000
  303 2.430 2.094  2.766 1.000 1.00000 2.440 1.000      0.811  23.000
  304 2.470 2.130  2.810 1.000 1.00000 2.470 1.000      6.526  23.000
  305 2.350 2.022  2.678 1.000 1.00000 2.350 1.000      4.591  23.000
  306 2.370 2.040  2.700 1.000 1.00000 2.360 1.000      2.103  23.000
  307 2.430 2.094  2.766 1.000 1.00000 2.440 1.000      0.800  23.000
  308 2.560 2.211  2.909 1.000 1.00000 2.550 1.000     10.696  23.000
  309 2.470 2.130  2.810 1.000 1.00000 2.470 1.000      7.978  23.000
  310 2.340 2.013  2.667 1.000 1.00000 2.340 1.000      4.327  23.000
  311 2.360 2.031  2.689 1.000 1.00000 2.360 1.000      1.205  23.000
  312 2.350 2.022  2.678 1.000 1.00000 2.350 1.000      4.071  23.000
  313 2.530 2.184  2.876 1.000 1.00000 2.540 1.000     10.748  23.000
  314 2.400 2.067  2.733 1.000 1.00000 2.400 1.000      0.313  23.000
  315 2.530 2.184  2.876 1.000 1.00000 2.540 1.000      8.115  23.000
  316 2.440 2.103  2.777 1.000 1.00000 2.440 1.000      1.814  23.000
  317 2.420 2.085  2.755 1.000 1.00000 2.410 1.000      1.139  23.000
  318 2.400 2.067  2.733 1.000 1.00000 2.400 1.000      1.029  23.000
  319 2.400 2.067  2.733 1.000 1.00000 2.400 1.000      1.028  23.000
  320 2.360 2.031  2.689 1.000 1.00000 2.360 1.000      2.210  23.000
  321 2.440 2.103  2.777 1.000 1.00000 2.440 1.000      1.837  23.000
  322 2.420 2.085  2.755 1.000 1.00000 2.430 1.000      0.716  23.000
  323 2.430 2.094  2.766 1.000 1.00000 2.430 1.000      0.763  23.000
  324 2.550 2.202  2.898 1.000 1.00000 2.540 1.000     16.375  23.000
  325 2.450 2.112  2.788 1.000 1.00000 2.450 1.000      2.736  23.000
  326 2.340 2.013  2.667 1.000 1.00000 2.340 1.000      9.103  23.000
  327 2.430 2.094  2.766 1.000 1.00000 2.430 1.000      1.382  23.000
  328 2.380 2.049  2.711 1.000 1.00000 2.380 1.000      1.296  23.000
  329 2.450 2.112  2.788 1.000 1.00000 2.450 1.000      3.528  23.000
  330 2.540 2.193  2.887 1.000 1.00000 2.540 1.000     16.053  23.000
  331 2.440 2.103  2.777 1.000 1.00000 2.440 1.000      1.117  23.000
  332 2.360 2.031  2.689 1.000 1.00000 2.360 1.000      2.057  23.000
  333 2.420 2.085  2.755 1.000 1.00000 2.410 1.000      0.443  23.000
  334 2.330 2.004  2.656 1.000 1.00000 2.340 1.000      6.531  23.000
  335 2.430 2.094  2.766 1.000 1.00000 2.430 1.000      0.667  23.000
  336 2.430 2.094  2.766 1.000 1.00000 2.430 1.000      0.894  23.000
  337 2.460 2.121  2.799 1.000 1.00000 2.450 1.000      2.540  23.000
  338 2.440 2.103  2.777 1.000 1.00000 2.440 1.000      2.390  23.000
  339 2.470 2.130  2.810 1.000 1.00000 2.470 1.000      4.867  23.000
  340 2.360 2.031  2.689 1.000 1.00000 2.360 1.000      1.905  23.000
  341 2.370 2.040  2.700 1.000 1.00000 2.370 1.000      2.461  23.000
  342 2.440 2.103  2.777 1.000 1.00000 2.440 1.000      1.537  23.000
  343 2.360 2.031  2.689 1.000 1.00000 2.360 1.000      1.548  23.000
  344 2.430 2.094  2.766 1.000 1.00000 2.440 1.000      0.950  23.000
  345 2.490 2.148  2.832 1.000 1.00000 2.490 1.000      6.441  23.000
  346 2.390 2.058  2.722 1.000 1.00000 2.390 1.000      0.216  23.000
  347 2.420 2.085  2.755 1.000 1.00000 2.410 1.000      0.514  23.000
  348 2.460 2.121  2.799 1.000 1.00000 2.450 1.000      4.303  23.000
  349 2.390 2.058  2.722 1.000 1.00000 2.390 1.000      0.360  23.000
  350 2.380 2.049  2.711 1.000 1.00000 2.380 1.000      0.687  23.000
  351 2.470 2.130  2.810 1.000 1.00000 2.470 1.000      5.500  23.000
  352 2.350 2.022  2.678 1.000 1.00000 2.350 1.000      7.151  23.000
  353 2.350 2.022  2.678 1.000 1.00000 2.350 1.000      4.745  23.000
  354 2.400 2.067  2.733 1.000 1.00000 2.400 1.000      0.682  23.000
  355 2.480 2.139  2.821 1.000 1.00000 2.480 1.000      3.891  23.000
  356 2.420 2.085  2.755 1.000 1.00000 2.410 1.000      0.628  23.000
  357 2.470 2.130  2.810 1.000 1.00000 2.470 1.000      7.556  23.000
  358 2.420 2.085  2.755 1.000 1.00000 2.430 1.000      0.546  23.000
  359 2.590 2.238  2.942 1.000 1.00000 2.590 1.000     20.648  23.000
  360 2.540 2.193  2.887 1.000 1.00000 2.540 1.000      8.011  23.000
  361 2.450 2.112  2.788 1.000 1.00000 2.450 1.000      3.917  23.000
  362 2.580 2.229  2.931 1.000 1.00000 2.580 1.000     20.168  23.000
  363 2.400 2.067  2.733 1.000 1.00000 2.400 1.000      0.198  23.000
  364 2.340 2.013  2.667 1.000 1.00000 2.340 1.000      9.001  23.000
  365 2.430 2.094  2.766 1.000 1.00000 2.440 1.000      2.165  23.000
  366 2.360 2.031  2.689 1.000 1.00000 2.360 1.000      1.721  23.000
  367 2.390 2.058  2.722 1.000 1.00000 2.390 1.000      0.362  23.000
  368 2.540 2.193  2.887 1.000 1.00000 2.540 1.000     13.831  23.000
  369 2.430 2.094  2.766 1.000 1.00000 2.440 1.000      0.813  23.000
  370 2.450 2.112  2.788 1.000 1.00000 2.450 1.000      2.404  23.000
  371 2.460 2.121  2.799 1.000 1.00000 2.450 1.000      3.283  23.000
  372 2.450 2.112  2.788 1.000 1.00000 2.450 1.000      3.654  23.000
  373 2.470 2.130  2.810 1.000 1.00000 2.470 1.000      4.622  23.000
  374 2.540 2.193  2.887 1.000 1.00000 2.540 1.000      7.255  23.000
  375 2.490 2.148  2.832 1.000 1.00000 2.480 1.000      9.556  23.000
  376 2.440 2.103  2.777 1.000 1.00000 2.440 1.000      1.929  23.000
  377 2.450 2.112  2.788 1.000 1.00000 2.450 1.000      4.924  23.000
  378 2.430 2.094  2.766 1.000 1.00000 2.430 1.000      0.630  23.000
  379 2.410 2.076  2.744 1.000 1.00000 2.400 1.000      0.338  23.000
  380 2.450 2.112  2.788 1.000 1.00000 2.450 1.000      1.939  23.000
  381 2.390 2.058  2.722 1.000 1.00000 2.390 1.000      0.267  23.000
  382 2.410 2.076  2.744 1.000 1.00000 2.410 1.000      0.368  23.000
  383 2.340 2.013  2.667 1.000 1.00000 2.340 1.000      8.681  23.000
  384 2.450 2.112  2.788 1.000 1.00000 2.450 1.000      4.231  23.000
  385 2.540 2.193  2.887 1.000 1.00000 2.540 1.000      8.511  23.000
  386 2.390 2.058  2.722 1.000 1.00000 2.390 1.000      0.664  23.000
  387 2.450 2.112  2.788 1.000 1.00000 2.450 1.000      2.584  23.000
  388 2.400 2.067  2.733 1.000 1.00000 2.400 1.000      0.449  23.000
  389 2.440 2.103  2.777 1.000 1.00000 2.450 1.000      1.878  23.000
  390 2.400 2.067  2.733 1.000 1.00000 2.400 1.000      0.244  23.000
  391 2.470 2.130  2.810 1.000 1.00000 2.470 1.000      6.411  23.000
  392 2.410 2.076  2.744 1.000 1.00000 2.410 1.000      0.301  23.000
  393 2.440 2.103  2.777 1.000 1.00000 2.440 1.000      1.434  23.000
  394 2.390 2.058  2.722 1.000 1.00000 2.390 1.000      0.530  23.000
  395 2.430 2.094  2.766 1.000 1.00000 2.440 1.000      1.252  23.000
  396 2.450 2.112  2.788 1.000 1.00000 2.450 1.000      1.931  23.000
  397 2.480 2.139  2.821 1.000 1.00000 2.480 1.000      4.216  23.000
  398 2.460 2.121  2.799 1.000 1.00000 2.470 1.000      4.493  23.000
  399 2.410 2.076  2.744 1.000 1.00000 2.410 1.000      0.308  23.000
  400 2.360 2.031  2.689 1.000 1.00000 2.360 1.000      1.628  23.000
  401 2.420 2.085  2.755 1.000 1.00000 2.410 1.000      0.828  23.000
  402 2.450 2.112  2.788 1.000 1.00000 2.450 1.000      2.739  23.000
  403 2.540 2.193  2.887 1.000 1.00000 2.540 1.000     13.566  23.000
  404 2.480 2.139  2.821 1.000 1.00000 2.480 1.000      5.712  23.000
  405 2.630 2.274  2.986 1.000 1.00000 2.630 1.000     25.634  23.000
  406 2.400 2.067  2.733 1.000 1.00000 2.400 1.000      0.246  23.000
  407 2.460 2.121  2.799 1.000 1.00000 2.450 1.000      5.413  23.000
  408 2.410 2.076  2.744 1.000 1.00000 2.410 1.000      0.360  23.000
  409 2.410 2.076  2.744 1.000 1.00000 2.400 1.000      0.282  23.000
  410 2.450 2.112  2.788 1.000 1.00000 2.450 1.000      4.800  23.000
  411 2.630 2.274  2.986 1.000 1.00000 2.630 1.000     25.858  23.000
  412 2.570 2.220  2.920 1.000 1.00000 2.570 1.000     15.895  23.000
  413 2.380 2.049  2.711 1.000 1.00000 2.380 1.000      1.480  23.000
  414 2.400 2.067  2.733 1.000 1.00000 2.400 1.000      0.308  23.000
  415 2.400 2.067  2.733 1.000 1.00000 2.400 1.000      0.291  23.000
  416 2.450 2.112  2.788 1.000 1.00000 2.450 1.000      3.945  23.000
  417 2.350 2.022  2.678 1.000 1.00000 2.350 1.000      5.061  23.000
  418 2.610 2.256  2.964 1.000 1.00000 2.610 1.000     21.257  23.000
  419 2.370 2.040  2.700 1.000 1.00000 2.360 1.000      2.361  23.000
  420 2.540 2.193  2.887 1.000 1.00000 2.540 1.000     13.250  23.000
  421 2.420 2.085  2.755 1.000 1.00000 2.410 1.000      0.571  23.000
  422 2.450 2.112  2.788 1.000 1.00000 2.450 1.000      2.425  23.000
  423 2.430 2.094  2.766 1.000 1.00000 2.440 1.000      0.808  23.000
  424 2.430 2.094  2.766 1.000 1.00000 2.440 1.000      1.113  23.000
  425 2.470 2.130  2.810 1.000 1.00000 2.470 1.000      5.425  23.000
  426 2.380 2.049  2.711 1.000 1.00000 2.380 1.000      0.819  23.000
  427 2.440 2.103  2.777 1.000 1.00000 2.440 1.000      2.808  23.000
  428 2.480 2.139  2.821 1.000 1.00000 2.480 1.000      7.176  23.000
  429 2.440 2.103  2.777 1.000 1.00000 2.440 1.000      2.416  23.000
  430 2.430 2.094  2.766 1.000 1.00000 2.430 1.000      0.709  23.000
  431 2.400 2.067  2.733 1.000 1.00000 2.400 1.000      0.211  23.000
  432 2.440 2.103  2.777 1.000 1.00000 2.440 1.000      3.235  23.000
  433 2.340 2.013  2.667 1.000 1.00000 2.340 1.000      5.531  23.000
  434 2.350 2.022  2.678 1.000 1.00000 2.350 1.000      3.211  23.000
  435 2.460 2.121  2.799 1.000 1.00000 2.450 1.000      3.283  23.000
  436 2.400 2.067  2.733 1.000 1.00000 2.400 1.000      0.967  23.000
  437 2.370 2.040  2.700 1.000 1.00000 2.360 1.000      2.558  23.000
  438 2.460 2.121  2.799 1.000 1.00000 2.450 1.000      3.123  23.000
  439 2.410 2.076  2.744 1.000 1.00000 2.410 1.000      0.419  23.000
  440 2.400 2.067  2.733 1.000 1.00000 2.400 1.000      0.219  23.000
  441 2.440 2.103  2.777 1.000 1.00000 2.440 1.000      2.381  23.000
  442 2.460 2.121  2.799 1.000 1.00000 2.450 1.000      2.153  23.000
  443 2.530 2.184  2.876 1.000 1.00000 2.530 1.000     12.137  23.000
  444 2.360 2.031  2.689 1.000 1.00000 2.360 1.000      1.767  23.000
  445 2.360 2.031  2.689 1.000 1.00000 2.360 1.000      2.521  23.000
  446 2.540 2.193  2.887 1.000 1.00000 2.540 1.000     10.958  23.000
  447 2.390 2.058  2.722 1.000 1.00000 2.390 1.000      1.202  23.000
  448 2.470 2.130  2.810 1.000 1.00000 2.470 1.000      4.502  23.000
  449 2.460 2.121  2.799 1.000 1.00000 2.450 1.000      3.823  23.000
  450 2.370 2.040  2.700 1.000 1.00000 2.370 1.000      1.464  23.000
  451 2.580 2.229  2.931 1.000 1.00000 2.580 1.000     12.371  23.000
  452 2.540 2.193  2.887 1.000 1.00000 2.540 1.000     11.329  23.000
  453 2.470 2.130  2.810 1.000 1.00000 2.470 1.000      4.429  23.000
  454 2.540 2.193  2.887 1.000 1.00000 2.540 1.000      8.928  23.000
  455 2.560 2.211  2.909 1.000 1.00000 2.560 1.000     20.213  23.000
  456 2.410 2.076  2.744 1.000 1.00000 2.410 1.000      0.669  23.000
  457 2.440 2.103  2.777 1.000 1.00000 2.440 1.000      1.620  23.000
  458 2.580 2.229  2.931 1.000 1.00000 2.580 1.000     22.176  23.000
  459 2.370 2.040  2.700 1.000 1.00000 2.370 1.000      0.828  23.000
  460 2.400 2.067  2.733 1.000 1.00000 2.400 1.000      2.509  23.000
  461 2.400 2.067  2.733 1.000 1.00000 2.400 1.000      0.683  23.000
  462 2.540 2.193  2.887 1.000 1.00000 2.540 1.000     14.080  23.000
  463 2.370 2.040  2.700 1.000 1.00000 2.360 1.000      1.315  23.000
  464 2.360 2.031  2.689 1.000 1.00000 2.360 1.000      2.505  23.000
  465 2.400 2.067  2.733 1.000 1.00000 2.400 1.000      0.281  23.000
  466 2.460 2.121  2.799 1.000 1.00000 2.450 1.000      3.301  23.000
  467 2.380 2.049  2.711 1.000 1.00000 2.390 1.000      0.612  23.000
  468 2.490 2.148  2.832 1.000 1.00000 2.480 1.000      9.064  23.000
  469 2.470 2.130  2.810 1.000 1.00000 2.470 1.000      4.082  23.000
  470 2.410 2.076  2.744 1.000 1.00000 2.410 1.000      0.440  23.000
  471 2.570 2.220  2.920 1.000 1.00000 2.570 1.000     20.637  23.000
  472 2.460 2.121  2.799 1.000 1.00000 2.470 1.000      5.652  23.000
  473 2.360 2.031  2.689 1.000 1.00000 2.360 1.000      1.565  23.000
  474 2.570 2.220  2.920 1.000 1.00000 2.570 1.000     23.159  23.000
  475 2.570 2.220  2.920 1.000 1.00000 2.570 1.000     22.767  23.000
  476 2.460 2.121  2.799 1.000 1.00000 2.450 1.000      4.244  23.000
  477 2.540 2.193  2.887 1.000 1.00000 2.540 1.000     12.520  23.000
  478 2.560 2.211  2.909 1.000 1.00000 2.550 1.000     17.234  23.000
  479 2.450 2.112  2.788 1.000 1.00000 2.440 1.000      4.311  23.000
  480 2.410 2.076  2.744 1.000 1.00000 2.410 1.000      1.178  23.000
  481 2.390 2.058  2.722 1.000 1.00000 2.390 1.000      0.364  23.000
  482 2.420 2.085  2.755 1.000 1.00000 2.430 1.000      0.541  23.000
  483 2.400 2.067  2.733 1.000 1.00000 2.400 1.000      0.396  23.000
  484 2.540 2.193  2.887 1.000 1.00000 2.540 1.000     15.508  23.000
  485 2.400 2.067  2.733 1.000 1.00000 2.400 1.000      0.629  23.000
  486 2.450 2.112  2.788 1.000 1.00000 2.450 1.000      3.280  23.000
  487 2.530 2.184  2.876 1.000 1.00000 2.540 1.000      9.596  23.000
  488 2.360 2.031  2.689 1.000 1.00000 2.350 1.000      3.701  23.000
  489 2.450 2.112  2.788 1.000 1.00000 2.450 1.000      4.221  23.000
  490 2.540 2.193  2.887 1.000 1.00000 2.540 1.000     15.906  23.000
  491 2.380 2.049  2.711 1.000 1.00000 2.380 1.000      0.687  23.000
  492 2.440 2.103  2.777 1.000 1.00000 2.440 1.000      2.243  23.000
  493 2.390 2.058  2.722 1.000 1.00000 2.390 1.000      0.739  23.000
  494 2.390 2.058  2.722 1.000 1.00000 2.390 1.000      0.763  23.000
  495 2.540 2.193  2.887 1.000 1.00000 2.540 1.000     10.270  23.000
  496 2.540 2.193  2.887 1.000 1.00000 2.540 1.000      9.447  23.000
  497 2.470 2.130  2.810 1.000 1.00000 2.480 1.000      5.518  23.000
  498 2.380 2.049  2.711 1.000 1.00000 2.380 1.000      1.457  23.000
  499 2.430 2.094  2.766 1.000 1.00000 2.440 1.000      0.839  23.000
  500 2.430 2.094  2.766 1.000 1.00000 2.430 1.000      0.990  23.000
  501 2.410 2.076  2.744 1.000 1.00000 2.410 1.000      0.336  23.000
  502 2.450 2.112  2.788 1.000 1.00000 2.450 1.000      3.276  23.000
  503 2.560 2.211  2.909 1.000 1.00000 2.550 1.000     19.903  23.000
  504 2.430 2.094  2.766 1.000 1.00000 2.430 1.000      1.486  23.000
  505 2.470 2.130  2.810 1.000 1.00000 2.470 1.000      6.858  23.000
  506 2.460 2.121  2.799 1.000 1.00000 2.450 1.000      1.970  23.000
  507 2.480 2.139  2.821 1.000 1.00000 2.480 1.000      5.541  23.000
  508 2.470 2.130  2.810 1.000 1.00000 2.470 1.000      2.039  23.000
  509 2.620 2.265  2.975 1.000 1.00000 2.620 1.000     28.887  23.000
  510 2.430 2.094  2.766 1.000 1.00000 2.430 1.000      0.947  23.000
  511 2.440 2.103  2.777 1.000 1.00000 2.440 1.000      1.834  23.000
  512 2.370 2.040  2.700 1.000 1.00000 2.360 1.000      1.005  23.000
  513 2.410 2.076  2.744 1.000 1.00000 2.410 1.000      0.330  23.000
  514 2.620 2.265  2.975 1.000 1.00000 2.620 1.000     27.054  23.000
  515 2.360 2.031  2.689 1.000 1.00000 2.360 1.000      1.394  23.000
  516 2.540 2.193  2.887 1.000 1.00000 2.540 1.000     10.507  23.000
  517 2.410 2.076  2.744 1.000 1.00000 2.410 1.000      4.094  23.000
  518 2.480 2.139  2.821 1.000 1.00000 2.480 1.000      8.454  23.000
  519 2.630 2.274  2.986 1.000 1.00000 2.630 1.000     17.734  23.000
  520 2.410 2.076  2.744 1.000 1.00000 2.410 1.000      1.289  23.000
  521 2.440 2.103  2.777 1.000 1.00000 2.440 1.000      1.702  23.000
  522 2.490 2.148  2.832 1.000 1.00000 2.480 1.000      5.818  23.000
  523 2.340 2.013  2.667 1.000 1.00000 2.340 1.000      7.527  23.000
  524 2.380 2.049  2.711 1.000 1.00000 2.390 1.000      0.618  23.000
  525 2.570 2.220  2.920 1.000 1.00000 2.570 1.000     21.719  23.000
  526 2.400 2.067  2.733 1.000 1.00000 2.400 1.000      1.596  23.000
  527 2.360 2.031  2.689 1.000 1.00000 2.350 1.000      8.459  23.000
  528 2.400 2.067  2.733 1.000 1.00000 2.400 1.000      0.216  23.000
  529 2.570 2.220  2.920 1.000 1.00000 2.570 1.000     20.620  23.000
  530 2.420 2.085  2.755 1.000 1.00000 2.430 1.000      0.801  23.000
  531 2.360 2.031  2.689 1.000 1.00000 2.360 1.000      3.427  23.000
  532 2.460 2.121  2.799 1.000 1.00000 2.450 1.000      4.950  23.000
  533 2.350 2.022  2.678 1.000 1.00000 2.350 1.000      3.207  23.000
  534 2.470 2.130  2.810 1.000 1.00000 2.470 1.000      4.653  23.000
  535 2.370 2.040  2.700 1.000 1.00000 2.360 1.000      1.162  23.000
  536 2.440 2.103  2.777 1.000 1.00000 2.440 1.000      2.278  23.000
  537 2.430 2.094  2.766 1.000 1.00000 2.440 1.000      1.518  23.000
  538 2.520 2.175  2.865 1.000 1.00000 2.530 1.000     10.363  23.000
  539 2.460 2.121  2.799 1.000 1.00000 2.450 1.000      2.080  23.000
  540 2.460 2.121  2.799 1.000 1.00000 2.470 1.000      5.817  23.000
  541 2.420 2.085  2.755 1.000 1.00000 2.430 1.000      0.700  23.000
  542 2.540 2.193  2.887 1.000 1.00000 2.540 1.000     17.081  23.000
  543 2.430 2.094  2.766 1.000 1.00000 2.430 1.000      0.653  23.000
  544 2.380 2.049  2.711 1.000 1.00000 2.380 1.000      0.469  23.000
  545 2.340 2.013  2.667 1.000 1.00000 2.340 1.000      4.375  23.000
  546 2.350 2.022  2.678 1.000 1.00000 2.350 1.000      3.295  23.000
  547 2.480 2.139  2.821 1.000 1.00000 2.480 1.000      3.860  23.000
  548 2.420 2.085  2.755 1.000 1.00000 2.410 1.000      0.561  23.000
  549 2.460 2.121  2.799 1.000 1.00000 2.470 1.000      2.996  23.000
  550 2.420 2.085  2.755 1.000 1.00000 2.430 1.000      0.753  23.000
  551 2.390 2.058  2.722 1.000 1.00000 2.400 1.000      1.620  23.000
  552 2.480 2.139  2.821 1.000 1.00000 2.480 1.000      4.987  23.000
  553 2.400 2.067  2.733 1.000 1.00000 2.400 1.000      0.227  23.000
  554 2.440 2.103  2.777 1.000 1.00000 2.440 1.000      1.449  23.000
  555 2.420 2.085  2.755 1.000 1.00000 2.430 1.000      0.592  23.000
  556 2.460 2.121  2.799 1.000 1.00000 2.470 1.000      2.523  23.000
  557 2.420 2.085  2.755 1.000 1.00000 2.410 1.000      0.482  23.000
  558 2.430 2.094  2.766 1.000 1.00000 2.440 1.000      0.995  23.000
  559 2.410 2.076  2.744 1.000 1.00000 2.400 1.000      0.339  23.000
  560 2.360 2.031  2.689 1.000 1.00000 2.360 1.000      1.581  23.000
  561 2.360 2.031  2.689 1.000 1.00000 2.360 1.000      1.442  23.000
  562 2.470 2.130  2.810 1.000 1.00000 2.470 1.000      4.625  23.000
  563 2.420 2.085  2.755 1.000 1.00000 2.410 1.000      1.361  23.000
  564 2.530 2.184  2.876 1.000 1.00000 2.530 1.000      6.069  23.000
  565 2.540 2.193  2.887 1.000 1.00000 2.540 1.000     12.568  23.000
  566 2.470 2.130  2.810 1.000 1.00000 2.470 1.000      4.285  23.000
  567 2.410 2.076  2.744 1.000 1.00000 2.410 1.000      0.342  23.000
  568 2.350 2.022  2.678 1.000 1.00000 2.350 1.000      4.780  23.000
  569 2.510 2.166  2.854 1.000 1.00000 2.490 1.000      6.606  23.000
  570 2.360 2.031  2.689 1.000 1.00000 2.360 1.000      1.519  23.000
  571 2.540 2.193  2.887 1.000 1.00000 2.540 1.000     10.890  23.000
  572 2.430 2.094  2.766 1.000 1.00000 2.430 1.000      0.803  23.000
  573 2.380 2.049  2.711 1.000 1.00000 2.380 1.000      4.360  23.000
  574 2.480 2.139  2.821 1.000 1.00000 2.480 1.000      6.513  23.000
  575 2.380 2.049  2.711 1.000 1.00000 2.380 1.000      4.011  23.000
  576 2.500 2.157  2.843 1.000 1.00000 2.490 1.000     12.471  23.000
  577 2.400 2.067  2.733 1.000 1.00000 2.400 1.000      0.223  23.000
  578 2.390 2.058  2.722 1.000 1.00000 2.390 1.000      0.353  23.000
  579 2.380 2.049  2.711 1.000 1.00000 2.380 1.000      1.063  23.000
  580 2.440 2.103  2.777 1.000 1.00000 2.440 1.000      3.530  23.000
  581 2.450 2.112  2.788 1.000 1.00000 2.450 1.000      1.608  23.000
  582 2.370 2.040  2.700 1.000 1.00000 2.360 1.000      1.231  23.000
  583 2.450 2.112  2.788 1.000 1.00000 2.450 1.000      2.697  23.000
  584 2.480 2.139  2.821 1.000 1.00000 2.480 1.000      6.336  23.000
  585 2.450 2.112  2.788 1.000 1.00000 2.450 1.000      1.287  23.000
  586 2.360 2.031  2.689 1.000 1.00000 2.360 1.000      1.336  23.000
  587 2.430 2.094  2.766 1.000 1.00000 2.430 1.000      1.124  23.000
  588 2.380 2.049  2.711 1.000 1.00000 2.380 1.000      0.660  23.000
  589 2.400 2.067  2.733 1.000 1.00000 2.400 1.000      0.260  23.000
  590 2.440 2.103  2.777 1.000 1.00000 2.440 1.000      1.688  23.000
  591 2.380 2.049  2.711 1.000 1.00000 2.380 1.000      1.221  23.000
  592 2.420 2.085  2.755 1.000 1.00000 2.430 1.000      1.415  23.000
  593 2.460 2.121  2.799 1.000 1.00000 2.450 1.000      2.475  23.000
  594 2.490 2.148  2.832 1.000 1.00000 2.480 1.000     12.252  23.000
  595 2.410 2.076  2.744 1.000 1.00000 2.410 1.000      0.610  23.000
  596 2.460 2.121  2.799 1.000 1.00000 2.450 1.000      4.614  23.000
  597 2.480 2.139  2.821 1.000 1.00000 2.480 1.000      6.132  23.000
  598 2.350 2.022  2.678 1.000 1.00000 2.350 1.000      3.945  23.000
  599 2.350 2.022  2.678 1.000 1.00000 2.350 1.000      4.073  23.000
  600 2.450 2.112  2.788 1.000 1.00000 2.450 1.000      1.669  23.000
  601 2.450 2.112  2.788 1.000 1.00000 2.450 1.000      1.645  23.000
  602 2.470 2.130  2.810 1.000 1.00000 2.470 1.000      6.245  23.000
  603 2.380 2.049  2.711 1.000 1.00000 2.390 1.000      0.481  23.000
  604 2.390 2.058  2.722 1.000 1.00000 2.390 1.000      0.449  23.000
  605 2.470 2.130  2.810 1.000 1.00000 2.470 1.000      6.604  23.000
  606 2.440 2.103  2.777 1.000 1.00000 2.440 1.000      1.902  23.000
  607 2.430 2.094  2.766 1.000 1.00000 2.440 1.000      1.016  23.000
  608 2.540 2.193  2.887 1.000 1.00000 2.540 1.000     10.952  23.000
  609 2.570 2.220  2.920 1.000 1.00000 2.570 1.000     13.626  23.000
  610 2.460 2.121  2.799 1.000 1.00000 2.450 1.000      2.388  23.000
  611 2.400 2.067  2.733 1.000 1.00000 2.400 1.000      0.224  23.000
  612 2.600 2.247  2.953 1.000 1.00000 2.590 1.000     18.500  23.000
  613 2.370 2.040  2.700 1.000 1.00000 2.360 1.000      1.016  23.000
  614 2.460 2.121  2.799 1.000 1.00000 2.450 1.000      3.696  23.000
  615 2.540 2.193  2.887 1.000 1.00000 2.540 1.000     15.895  23.000
  616 2.520 2.175  2.865 1.000 1.00000 2.530 1.000      8.308  23.000
  617 2.540 2.193  2.887 1.000 1.00000 2.540 1.000      9.042  23.000
  618 2.380 2.049  2.711 1.000 1.00000 2.390 1.000      0.452  23.000
  619 2.540 2.193  2.887 1.000 1.00000 2.540 1.000      9.173  23.000
  620 2.380 2.049  2.711 1.000 1.00000 2.380 1.000      0.533  23.000
  621 2.390 2.058  2.722 1.000 1.00000 2.390 1.000      0.378  23.000
  622 2.450 2.112  2.788 1.000 1.00000 2.450 1.000      1.622  23.000
  623 2.460 2.121  2.799 1.000 1.00000 2.470 1.000      4.658  23.000
  624 2.400 2.067  2.733 1.000 1.00000 2.400 1.000      0.227  23.000
  625 2.580 2.229  2.931 1.000 1.00000 2.580 1.000     12.962  23.000
  626 2.360 2.031  2.689 1.000 1.00000 2.360 1.000      1.991  23.000
  627 2.360 2.031  2.689 1.000 1.00000 2.360 1.000      2.828  23.000
  628 2.460 2.121  2.799 1.000 1.00000 2.470 1.000      6.147  23.000
  629 2.450 2.112  2.788 1.000 1.00000 2.450 1.000      2.259  23.000
  630 2.350 2.022  2.678 1.000 1.00000 2.350 1.000      4.499  23.000
  631 2.540 2.193  2.887 1.000 1.00000 2.540 1.000     12.913  23.000
  632 2.540 2.193  2.887 1.000 1.00000 2.540 1.000     11.498  23.000
  633 2.480 2.139  2.821 1.000 1.00000 2.480 1.000      5.854  23.000
  634 2.480 2.139  2.821 1.000 1.00000 2.480 1.000      8.785  23.000
  635 2.410 2.076  2.744 1.000 1.00000 2.410 1.000      0.376  23.000
  636 2.360 2.031  2.689 1.000 1.00000 2.350 1.000      2.912  23.000
  637 2.540 2.193  2.887 1.000 1.00000 2.540 1.000     11.131  23.000
  638 2.480 2.139  2.821 1.000 1.00000 2.480 1.000      7.158  23.000
  639 2.380 2.049  2.711 1.000 1.00000 2.380 1.000      0.501  23.000
  640 2.420 2.085  2.755 1.000 1.00000 2.410 1.000      0.695  23.000
  641 2.620 2.265  2.975 1.000 1.00000 2.620 1.000     28.169  23.000
  642 2.440 2.103  2.777 1.000 1.00000 2.440 1.000      1.701  23.000
  643 2.440 2.103  2.777 1.000 1.00000 2.440 1.000      1.657  23.000
  644 2.390 2.058  2.722 1.000 1.00000 2.390 1.000      0.298  23.000
  645 2.400 2.067  2.733 1.000 1.00000 2.400 1.000      1.613  23.000
  646 2.530 2.184  2.876 1.000 1.00000 2.530 1.000      5.553  23.000
  647 2.450 2.112  2.788 1.000 1.00000 2.450 1.000      1.547  23.000
  648 2.480 2.139  2.821 1.000 1.00000 2.480 1.000      7.913  23.000
  649 2.440 2.103  2.777 1.000 1.00000 2.440 1.000      1.341  23.000
  650 2.410 2.076  2.744 1.000 1.00000 2.410 1.000      0.534  23.000
  651 2.430 2.094  2.766 1.000 1.00000 2.440 1.000      0.914  23.000
  652 2.380 2.049  2.711 1.000 1.00000 2.380 1.000      0.654  23.000
  653 2.330 2.004  2.656 1.000 1.00000 2.330 1.000     10.037  23.000
  654 2.460 2.121  2.799 1.000 1.00000 2.470 1.000      4.960  23.000
  655 2.430 2.094  2.766 1.000 1.00000 2.430 1.000      0.614  23.000
  656 2.420 2.085  2.755 1.000 1.00000 2.410 1.000      0.494  23.000
  657 2.420 2.085  2.755 1.000 1.00000 2.420 1.000      1.063  23.000
  658 2.360 2.031  2.689 1.000 1.00000 2.360 1.000      3.171  23.000
  659 2.530 2.184  2.876 1.000 1.00000 2.540 1.000      8.558  23.000
  660 2.470 2.130  2.810 1.000 1.00000 2.470 1.000      8.193  23.000
  661 2.540 2.193  2.887 1.000 1.00000 2.540 1.000     19.582  23.000
  662 2.360 2.031  2.689 1.000 1.00000 2.350 1.000      4.563  23.000
  663 2.340 2.013  2.667 1.000 1.00000 2.340 1.000      3.908  23.000
  664 2.420 2.085  2.755 1.000 1.00000 2.430 1.000      0.788  23.000
  665 2.460 2.121  2.799 1.000 1.00000 2.450 1.000      3.360  23.000
  666 2.400 2.067  2.733 1.000 1.00000 2.400 1.000      0.364  23.000
  667 2.410 2.076  2.744 1.000 1.00000 2.410 1.000      1.701  23.000
  668 2.470 2.130  2.810 1.000 1.00000 2.470 1.000      2.905  23.000
  669 2.440 2.103  2.777 1.000 1.00000 2.450 1.000      2.170  23.000
  670 2.480 2.139  2.821 1.000 1.00000 2.480 1.000      7.516  23.000
  671 2.440 2.103  2.777 1.000 1.00000 2.440 1.000      1.294  23.000
  672 2.350 2.022  2.678 1.000 1.00000 2.350 1.000      3.012  23.000
  673 2.350 2.022  2.678 1.000 1.00000 2.350 1.000      3.936  23.000
  674 2.570 2.220  2.920 1.000 1.00000 2.570 1.000     21.669  23.000
  675 2.380 2.049  2.711 1.000 1.00000 2.380 1.000      0.626  23.000
  676 2.430 2.094  2.766 1.000 1.00000 2.430 1.000      0.943  23.000
  677 2.430 2.094  2.766 1.000 1.00000 2.430 1.000      0.687  23.000
  678 2.480 2.139  2.821 1.000 1.00000 2.480 1.000      5.459  23.000
  679 2.360 2.031  2.689 1.000 1.00000 2.350 1.000      3.089  23.000
  680 2.450 2.112  2.788 1.000 1.00000 2.450 1.000      1.319  23.000
  681 2.410 2.076  2.744 1.000 1.00000 2.410 1.000      0.408  23.000
  682 2.460 2.121  2.799 1.000 1.00000 2.450 1.000      4.413  23.000
  683 2.460 2.121  2.799 1.000 1.00000 2.450 1.000      2.037  23.000
  684 2.460 2.121  2.799 1.000 1.00000 2.450 1.000      1.247  23.000
  685 2.480 2.139  2.821 1.000 1.00000 2.480 1.000      6.052  23.000
  686 2.430 2.094  2.766 1.000 1.00000 2.430 1.000      0.746  23.000
  687 2.530 2.184  2.876 1.000 1.00000 2.530 1.000     10.247  23.000
  688 2.480 2.139  2.821 1.000 1.00000 2.480 1.000      5.318  23.000
  689 2.460 2.121  2.799 1.000 1.00000 2.450 1.000      1.801  23.000
  690 2.340 2.013  2.667 1.000 1.00000 2.340 1.000      3.230  23.000
  691 2.540 2.193  2.887 1.000 1.00000 2.540 1.000      9.576  23.000
  692 2.480 2.139  2.821 1.000 1.00000 2.480 1.000      6.324  23.000
  693 2.420 2.085  2.755 1.000 1.00000 2.430 1.000      0.534  23.000
  694 2.470 2.130  2.810 1.000 1.00000 2.470 1.000      3.230  23.000
  695 2.440 2.103  2.777 1.000 1.00000 2.440 1.000      1.874  23.000
  696 2.350 2.022  2.678 1.000 1.00000 2.350 1.000      2.519  23.000
  697 2.460 2.121  2.799 1.000 1.00000 2.450 1.000      4.398  23.000
  698 2.450 2.112  2.788 1.000 1.00000 2.450 1.000      1.672  23.000
  699 2.550 2.202  2.898 1.000 1.00000 2.550 1.000     15.661  23.000
  700 2.540 2.193  2.887 1.000 1.00000 2.540 1.000      9.990  23.000
