## File LOS/SB2_B2004a_2.2z_Mags_400.bpz  Fri Aug 12 23:37:41 2016
##
##Parameters used to run BPZ:
##
##AB_DIR=/home/lidenscheng/bpz-1.99.3//AB/
##ADD_CONTINUOUS_PROB=None
##ADD_SPEC_PROB=None
##CHECK=LOS/SB2_B2004a_2.2z_Mags_400.flux_comparison
##COLOR=no
##COLUMNS=losNoErrors.columns
##CONVOLVE_P=yes
##DELTA_M_0=0.0
##DZ=0.01
##EXCLUDE=none
##FC=None
##FILTER_DIR=/home/lidenscheng/MK_DirectSim/filters/
##GET_Z=yes
##INPUT=LOS/SB2_B2004a_2.2z_Mags_400.txt
##INTERACTIVE=yes
##INTERP=0
##MADAU=no
##MAG=yes
##MEAN_IGM=yes
##MERGE_PEAKS=no
##MIN_MAGERR=0.001
##MIN_RMS=0.05
##NEW_AB=no
##NMAX=None
##NTYPES=None
##N_PEAKS=1
##ODDS=0.95
##ONLY_TYPE=no
##OUTPUT=LOS/SB2_B2004a_2.2z_Mags_400.bpz
##PHOTO_ERRORS=no
##PLOTS=no
##PRIOR=none
##PROBS=no
##PROBS2=no
##PROBS_LITE=LOS/SB2_B2004a_2.2z_Mags_400.probs
##P_MIN=0.01
##SED_DIR=/home/lidenscheng/MK_DirectSim/SEDs/
##SPECTRA=SB2.list
##VERBOSE=yes
##ZC=None
##ZMAX=10.0
##ZMIN=0.01
##ZP_OFFSETS=0.0
##Z_THR=0
##
##Column information
##
# 1 ID
# 2 Z_B
# 3 Z_B_MIN
# 4 Z_B_MAX
# 5 T_B
# 6 ODDS    
# 7 Z_ML
# 8 T_ML
# 9 CHI-SQUARED
# 10 M_0
##
    1 2.260 1.941  2.579 1.000 1.00000 2.260 1.000      1.513  23.000
    2 2.250 1.932  2.568 1.000 1.00000 2.260 1.000      1.925  23.000
    3 2.260 1.941  2.579 1.000 1.00000 2.260 1.000      1.398  23.000
    4 2.240 1.922  2.558 1.000 1.00000 2.240 1.000      1.310  23.000
    5 2.230 1.913  2.547 1.000 1.00000 2.240 1.000      2.388  23.000
    6 2.240 1.922  2.558 1.000 1.00000 2.240 1.000      1.228  23.000
    7 2.340 2.013  2.667 1.000 1.00000 2.340 1.000     23.397  23.000
    8 2.290 1.968  2.612 1.000 1.00000 2.290 1.000      6.608  23.000
    9 2.300 1.977  2.623 1.000 1.00000 2.300 1.000      9.635  23.000
   10 2.330 2.004  2.656 1.000 1.00000 2.340 1.000     21.965  23.000
   11 2.240 1.922  2.558 1.000 1.00000 2.250 1.000      0.914  23.000
   12 2.320 1.995  2.645 1.000 1.00000 2.320 1.000     19.504  23.000
   13 2.240 1.922  2.558 1.000 1.00000 2.240 1.000      1.200  23.000
   14 2.280 1.959  2.601 1.000 1.00000 2.290 1.000      5.274  23.000
   15 2.440 2.103  2.777 1.000 1.00000 2.440 1.000     42.980  23.000
   16 2.270 1.950  2.590 1.000 1.00000 2.260 1.000      2.533  23.000
   17 2.250 1.932  2.568 1.000 1.00000 2.250 1.000      0.607  23.000
   18 2.250 1.932  2.568 1.000 1.00000 2.250 1.000      0.788  23.000
   19 2.260 1.941  2.579 1.000 1.00000 2.260 1.000      1.441  23.000
   20 2.260 1.941  2.579 1.000 1.00000 2.260 1.000      1.273  23.000
   21 2.240 1.922  2.558 1.000 1.00000 2.240 1.000      1.844  23.000
   22 2.250 1.932  2.568 1.000 1.00000 2.250 1.000      0.616  23.000
   23 2.250 1.932  2.568 1.000 1.00000 2.250 1.000      0.647  23.000
   24 2.290 1.968  2.612 1.000 1.00000 2.290 1.000      7.580  23.000
   25 2.210 1.895  2.525 1.000 1.00000 2.200 1.000      7.330  23.000
   26 2.250 1.932  2.568 1.000 1.00000 2.250 1.000      0.583  23.000
   27 2.220 1.904  2.536 1.000 1.00000 2.220 1.000      5.046  23.000
   28 2.300 1.977  2.623 1.000 1.00000 2.300 1.000     11.684  23.000
   29 2.300 1.977  2.623 1.000 1.00000 2.300 1.000     11.821  23.000
   30 2.240 1.922  2.558 1.000 1.00000 2.240 1.000      1.630  23.000
   31 2.240 1.922  2.558 1.000 1.00000 2.240 1.000      1.078  23.000
   32 2.240 1.922  2.558 1.000 1.00000 2.250 1.000      0.950  23.000
   33 2.250 1.932  2.568 1.000 1.00000 2.250 1.000      1.173  23.000
   34 2.290 1.968  2.612 1.000 1.00000 2.290 1.000      5.695  23.000
   35 2.190 1.877  2.503 1.000 1.00000 2.190 1.000     10.472  23.000
   36 2.200 1.886  2.514 1.000 1.00000 2.200 1.000      8.168  23.000
   37 2.200 1.886  2.514 1.000 1.00000 2.200 1.000      8.073  23.000
   38 2.250 1.932  2.568 1.000 1.00000 2.250 1.000      0.947  23.000
   39 2.290 1.968  2.612 1.000 1.00000 2.290 1.000      6.212  23.000
   40 2.260 1.941  2.579 1.000 1.00000 2.260 1.000      1.785  23.000
   41 2.270 1.950  2.590 1.000 1.00000 2.260 1.000      3.017  23.000
   42 2.200 1.886  2.514 1.000 1.00000 2.200 1.000      7.485  23.000
   43 2.250 1.932  2.568 1.000 1.00000 2.250 1.000      0.934  23.000
   44 2.490 2.148  2.832 1.000 1.00000 2.490 1.000     55.572  23.000
   45 2.300 1.977  2.623 1.000 1.00000 2.300 1.000      9.212  23.000
   46 2.260 1.941  2.579 1.000 1.00000 2.260 1.000      1.811  23.000
   47 2.260 1.941  2.579 1.000 1.00000 2.260 1.000      1.372  23.000
   48 2.290 1.968  2.612 1.000 1.00000 2.290 1.000      5.387  23.000
   49 2.240 1.922  2.558 1.000 1.00000 2.240 1.000      1.098  23.000
   50 2.240 1.922  2.558 1.000 1.00000 2.240 1.000      1.940  23.000
   51 2.260 1.941  2.579 1.000 1.00000 2.260 1.000      1.632  23.000
   52 2.260 1.941  2.579 1.000 1.00000 2.260 1.000      1.653  23.000
   53 2.230 1.913  2.547 1.000 1.00000 2.240 1.000      3.050  23.000
   54 2.240 1.922  2.558 1.000 1.00000 2.240 1.000      1.148  23.000
   55 2.170 1.859  2.481 1.000 1.00000 2.150 1.000     11.418  23.000
   56 2.350 2.022  2.678 1.000 1.00000 2.350 1.000     25.868  23.000
   57 2.270 1.950  2.590 1.000 1.00000 2.260 1.000      2.903  23.000
   58 2.260 1.941  2.579 1.000 1.00000 2.260 1.000      1.737  23.000
   59 2.260 1.941  2.579 1.000 1.00000 2.260 1.000      1.277  23.000
   60 2.240 1.922  2.558 1.000 1.00000 2.250 1.000      0.746  23.000
   61 2.270 1.950  2.590 1.000 1.00000 2.260 1.000      2.531  23.000
   62 2.280 1.959  2.601 1.000 1.00000 2.280 1.000      4.090  23.000
   63 2.320 1.995  2.645 1.000 1.00000 2.310 1.000     17.990  23.000
   64 2.250 1.932  2.568 1.000 1.00000 2.250 1.000      0.652  23.000
   65 2.490 2.148  2.832 1.000 1.00000 2.490 1.000     56.533  23.000
   66 2.240 1.922  2.558 1.000 1.00000 2.240 1.000      1.165  23.000
   67 2.240 1.922  2.558 1.000 1.00000 2.250 1.000      0.899  23.000
   68 2.260 1.941  2.579 1.000 1.00000 2.260 1.000      1.439  23.000
   69 2.260 1.941  2.579 1.000 1.00000 2.260 1.000      1.803  23.000
   70 2.220 1.904  2.536 1.000 1.00000 2.220 1.000      5.527  23.000
   71 2.300 1.977  2.623 1.000 1.00000 2.300 1.000      9.363  23.000
   72 2.240 1.922  2.558 1.000 1.00000 2.250 1.000      0.748  23.000
   73 2.250 1.932  2.568 1.000 1.00000 2.250 1.000      0.954  23.000
   74 2.280 1.959  2.601 1.000 1.00000 2.290 1.000      4.685  23.000
   75 2.290 1.968  2.612 1.000 1.00000 2.290 1.000      7.749  23.000
   76 2.240 1.922  2.558 1.000 1.00000 2.250 1.000      0.953  23.000
   77 2.270 1.950  2.590 1.000 1.00000 2.260 1.000      3.735  23.000
   78 2.240 1.922  2.558 1.000 1.00000 2.250 1.000      0.839  23.000
   79 2.350 2.022  2.678 1.000 1.00000 2.350 1.000     27.461  23.000
   80 2.210 1.895  2.525 1.000 1.00000 2.200 1.000      7.300  23.000
   81 2.220 1.904  2.536 1.000 1.00000 2.220 1.000      4.387  23.000
   82 2.240 1.922  2.558 1.000 1.00000 2.240 1.000      1.155  23.000
   83 2.200 1.886  2.514 1.000 1.00000 2.200 1.000      8.162  23.000
   84 2.230 1.913  2.547 1.000 1.00000 2.240 1.000      3.006  23.000
   85 2.200 1.886  2.514 1.000 1.00000 2.200 1.000      8.941  23.000
   86 2.250 1.932  2.568 1.000 1.00000 2.250 1.000      1.678  23.000
   87 2.200 1.886  2.514 1.000 1.00000 2.200 1.000      8.525  23.000
   88 2.260 1.941  2.579 1.000 1.00000 2.260 1.000      1.308  23.000
   89 2.190 1.877  2.503 1.000 1.00000 2.190 1.000     10.472  23.000
   90 2.310 1.986  2.634 1.000 1.00000 2.310 1.000     13.433  23.000
   91 2.260 1.941  2.579 1.000 1.00000 2.260 1.000      1.632  23.000
   92 2.200 1.886  2.514 1.000 1.00000 2.200 1.000      8.443  23.000
   93 2.260 1.941  2.579 1.000 1.00000 2.260 1.000      1.294  23.000
   94 2.260 1.941  2.579 1.000 1.00000 2.260 1.000      1.502  23.000
   95 2.210 1.895  2.525 1.000 1.00000 2.220 1.000      5.669  23.000
   96 2.250 1.932  2.568 1.000 1.00000 2.250 1.000      1.314  23.000
   97 2.250 1.932  2.568 1.000 1.00000 2.250 1.000      0.654  23.000
   98 2.260 1.941  2.579 1.000 1.00000 2.260 1.000      1.966  23.000
   99 2.250 1.932  2.568 1.000 1.00000 2.250 1.000      0.680  23.000
  100 2.230 1.913  2.547 1.000 1.00000 2.240 1.000      2.983  23.000
  101 2.250 1.932  2.568 1.000 1.00000 2.250 1.000      0.723  23.000
  102 2.290 1.968  2.612 1.000 1.00000 2.290 1.000      7.323  23.000
  103 2.240 1.922  2.558 1.000 1.00000 2.240 1.000      1.362  23.000
  104 2.210 1.895  2.525 1.000 1.00000 2.210 1.000      6.267  23.000
  105 2.280 1.959  2.601 1.000 1.00000 2.280 1.000      4.346  23.000
  106 2.240 1.922  2.558 1.000 1.00000 2.240 1.000      1.258  23.000
  107 2.260 1.941  2.579 1.000 1.00000 2.260 1.000      1.518  23.000
  108 2.240 1.922  2.558 1.000 1.00000 2.240 1.000      1.084  23.000
  109 2.290 1.968  2.612 1.000 1.00000 2.290 1.000      7.248  23.000
  110 2.220 1.904  2.536 1.000 1.00000 2.220 1.000      4.633  23.000
  111 2.260 1.941  2.579 1.000 1.00000 2.260 1.000      1.897  23.000
  112 2.240 1.922  2.558 1.000 1.00000 2.240 1.000      2.255  23.000
  113 2.260 1.941  2.579 1.000 1.00000 2.260 1.000      1.149  23.000
  114 2.260 1.941  2.579 1.000 1.00000 2.260 1.000      1.505  23.000
  115 2.240 1.922  2.558 1.000 1.00000 2.250 1.000      0.731  23.000
  116 2.210 1.895  2.525 1.000 1.00000 2.210 1.000      6.326  23.000
  117 2.250 1.932  2.568 1.000 1.00000 2.250 1.000      0.732  23.000
  118 2.210 1.895  2.525 1.000 1.00000 2.200 1.000      7.372  23.000
  119 2.260 1.941  2.579 1.000 1.00000 2.260 1.000      1.466  23.000
  120 2.260 1.941  2.579 1.000 1.00000 2.260 1.000      1.513  23.000
  121 2.240 1.922  2.558 1.000 1.00000 2.240 1.000      1.156  23.000
  122 2.370 2.040  2.700 1.000 1.00000 2.370 1.000     34.074  23.000
  123 2.330 2.004  2.656 1.000 1.00000 2.340 1.000     21.188  23.000
  124 2.240 1.922  2.558 1.000 1.00000 2.250 1.000      0.860  23.000
  125 2.250 1.932  2.568 1.000 1.00000 2.250 1.000      0.701  23.000
  126 2.150 1.841  2.459 1.000 1.00000 2.150 1.000     10.659  23.000
  127 2.150 1.841  2.459 1.000 1.00000 2.150 1.000     10.769  23.000
  128 2.260 1.941  2.579 1.000 1.00000 2.260 1.000      1.419  23.000
  129 2.250 1.932  2.568 1.000 1.00000 2.250 1.000      0.689  23.000
  130 2.240 1.922  2.558 1.000 1.00000 2.240 1.000      1.526  23.000
  131 2.280 1.959  2.601 1.000 1.00000 2.280 1.000      4.165  23.000
  132 2.250 1.932  2.568 1.000 1.00000 2.250 1.000      0.640  23.000
  133 2.220 1.904  2.536 1.000 1.00000 2.230 1.000      4.121  23.000
  134 2.300 1.977  2.623 1.000 1.00000 2.300 1.000      9.857  23.000
  135 2.220 1.904  2.536 1.000 1.00000 2.220 1.000      5.107  23.000
  136 2.300 1.977  2.623 1.000 1.00000 2.300 1.000      9.954  23.000
  137 2.250 1.932  2.568 1.000 1.00000 2.250 1.000      0.640  23.000
  138 2.260 1.941  2.579 1.000 1.00000 2.260 1.000      2.257  23.000
  139 2.280 1.959  2.601 1.000 1.00000 2.280 1.000      4.245  23.000
  140 2.300 1.977  2.623 1.000 1.00000 2.300 1.000     12.000  23.000
  141 2.280 1.959  2.601 1.000 1.00000 2.280 1.000      4.470  23.000
  142 2.240 1.922  2.558 1.000 1.00000 2.250 1.000      0.959  23.000
  143 2.290 1.968  2.612 1.000 1.00000 2.290 1.000      5.695  23.000
  144 2.250 1.932  2.568 1.000 1.00000 2.250 1.000      0.714  23.000
  145 2.240 1.922  2.558 1.000 1.00000 2.240 1.000      1.056  23.000
  146 2.260 1.941  2.579 1.000 1.00000 2.260 1.000      1.251  23.000
  147 2.150 1.841  2.459 1.000 1.00000 2.150 1.000     10.688  23.000
  148 2.210 1.895  2.525 1.000 1.00000 2.210 1.000      6.724  23.000
  149 2.290 1.968  2.612 1.000 1.00000 2.290 1.000      6.495  23.000
  150 2.300 1.977  2.623 1.000 1.00000 2.310 1.000     13.023  23.000
  151 2.250 1.932  2.568 1.000 1.00000 2.250 1.000      0.647  23.000
  152 2.240 1.922  2.558 1.000 1.00000 2.240 1.000      2.197  23.000
  153 2.210 1.895  2.525 1.000 1.00000 2.210 1.000      6.910  23.000
  154 2.260 1.941  2.579 1.000 1.00000 2.260 1.000      1.873  23.000
  155 2.150 1.841  2.459 1.000 1.00000 2.150 1.000     10.716  23.000
  156 2.220 1.904  2.536 1.000 1.00000 2.220 1.000      5.640  23.000
  157 2.290 1.968  2.612 1.000 1.00000 2.290 1.000      7.776  23.000
  158 2.310 1.986  2.634 1.000 1.00000 2.310 1.000     15.673  23.000
  159 2.240 1.922  2.558 1.000 1.00000 2.240 1.000      1.065  23.000
  160 2.250 1.932  2.568 1.000 1.00000 2.250 1.000      1.473  23.000
  161 2.260 1.941  2.579 1.000 1.00000 2.260 1.000      2.117  23.000
  162 2.250 1.932  2.568 1.000 1.00000 2.250 1.000      0.718  23.000
  163 2.310 1.986  2.634 1.000 1.00000 2.310 1.000     14.696  23.000
  164 2.200 1.886  2.514 1.000 1.00000 2.200 1.000      7.398  23.000
  165 2.250 1.932  2.568 1.000 1.00000 2.250 1.000      0.640  23.000
  166 2.210 1.895  2.525 1.000 1.00000 2.210 1.000      6.595  23.000
  167 2.160 1.850  2.470 1.000 1.00000 2.150 1.000     11.348  23.000
  168 2.260 1.941  2.579 1.000 1.00000 2.260 1.000      1.253  23.000
  169 2.240 1.922  2.558 1.000 1.00000 2.240 1.000      2.072  23.000
  170 2.240 1.922  2.558 1.000 1.00000 2.240 1.000      1.828  23.000
  171 2.260 1.941  2.579 1.000 1.00000 2.260 1.000      1.491  23.000
  172 2.310 1.986  2.634 1.000 1.00000 2.310 1.000     15.695  23.000
  173 2.310 1.986  2.634 1.000 1.00000 2.310 1.000     14.956  23.000
  174 2.290 1.968  2.612 1.000 1.00000 2.290 1.000      5.820  23.000
  175 2.210 1.895  2.525 1.000 1.00000 2.210 1.000      6.568  23.000
  176 2.260 1.941  2.579 1.000 1.00000 2.260 1.000      1.909  23.000
  177 2.200 1.886  2.514 1.000 1.00000 2.200 1.000      7.485  23.000
  178 2.320 1.995  2.645 1.000 1.00000 2.310 1.000     17.043  23.000
  179 2.250 1.932  2.568 1.000 1.00000 2.250 1.000      1.491  23.000
  180 2.330 2.004  2.656 1.000 1.00000 2.340 1.000     22.137  23.000
  181 2.250 1.932  2.568 1.000 1.00000 2.250 1.000      0.647  23.000
  182 2.440 2.103  2.777 1.000 1.00000 2.440 1.000     40.634  23.000
  183 2.290 1.968  2.612 1.000 1.00000 2.290 1.000      6.884  23.000
  184 2.260 1.941  2.579 1.000 1.00000 2.260 1.000      1.843  23.000
  185 2.360 2.031  2.689 1.000 1.00000 2.350 1.000     29.556  23.000
  186 2.220 1.904  2.536 1.000 1.00000 2.220 1.000      5.329  23.000
  187 2.220 1.904  2.536 1.000 1.00000 2.220 1.000      4.688  23.000
  188 2.260 1.941  2.579 1.000 1.00000 2.260 1.000      1.894  23.000
  189 2.260 1.941  2.579 1.000 1.00000 2.260 1.000      1.539  23.000
  190 2.260 1.941  2.579 1.000 1.00000 2.260 1.000      1.917  23.000
  191 2.230 1.913  2.547 1.000 1.00000 2.230 1.000      3.683  23.000
  192 2.190 1.877  2.503 1.000 1.00000 2.190 1.000     10.941  23.000
  193 2.260 1.941  2.579 1.000 1.00000 2.260 1.000      2.147  23.000
  194 2.250 1.932  2.568 1.000 1.00000 2.250 1.000      0.666  23.000
  195 2.350 2.022  2.678 1.000 1.00000 2.350 1.000     26.117  23.000
  196 2.210 1.895  2.525 1.000 1.00000 2.200 1.000      7.300  23.000
  197 2.190 1.877  2.503 1.000 1.00000 2.190 1.000     10.626  23.000
  198 2.210 1.895  2.525 1.000 1.00000 2.210 1.000      6.561  23.000
  199 2.200 1.886  2.514 1.000 1.00000 2.200 1.000      8.941  23.000
  200 2.250 1.932  2.568 1.000 1.00000 2.250 1.000      0.632  23.000
  201 2.260 1.941  2.579 1.000 1.00000 2.260 1.000      1.389  23.000
  202 2.250 1.932  2.568 1.000 1.00000 2.250 1.000      0.683  23.000
  203 2.220 1.904  2.536 1.000 1.00000 2.220 1.000      4.222  23.000
  204 2.280 1.959  2.601 1.000 1.00000 2.290 1.000      5.113  23.000
  205 2.220 1.904  2.536 1.000 1.00000 2.220 1.000      4.706  23.000
  206 2.250 1.932  2.568 1.000 1.00000 2.250 1.000      0.990  23.000
  207 2.250 1.932  2.568 1.000 1.00000 2.250 1.000      1.031  23.000
  208 2.480 2.139  2.821 1.000 1.00000 2.480 1.000     51.468  23.000
  209 2.150 1.841  2.459 1.000 1.00000 2.150 1.000      9.524  23.000
  210 2.240 1.922  2.558 1.000 1.00000 2.240 1.000      1.658  23.000
  211 2.270 1.950  2.590 1.000 1.00000 2.260 1.000      2.865  23.000
  212 2.250 1.932  2.568 1.000 1.00000 2.250 1.000      1.695  23.000
  213 2.280 1.959  2.601 1.000 1.00000 2.290 1.000      4.895  23.000
  214 2.260 1.941  2.579 1.000 1.00000 2.260 1.000      2.209  23.000
  215 2.260 1.941  2.579 1.000 1.00000 2.260 1.000      1.739  23.000
  216 2.190 1.877  2.503 1.000 1.00000 2.200 1.000      9.425  23.000
  217 2.270 1.950  2.590 1.000 1.00000 2.260 1.000      2.907  23.000
  218 2.250 1.932  2.568 1.000 1.00000 2.250 1.000      0.692  23.000
  219 2.250 1.932  2.568 1.000 1.00000 2.250 1.000      0.624  23.000
  220 2.290 1.968  2.612 1.000 1.00000 2.290 1.000      7.280  23.000
  221 2.240 1.922  2.558 1.000 1.00000 2.240 1.000      1.610  23.000
  222 2.290 1.968  2.612 1.000 1.00000 2.290 1.000      5.744  23.000
  223 2.260 1.941  2.579 1.000 1.00000 2.260 1.000      2.058  23.000
  224 2.150 1.841  2.459 1.000 1.00000 2.150 1.000      9.351  23.000
  225 2.260 1.941  2.579 1.000 1.00000 2.260 1.000      1.246  23.000
  226 2.210 1.895  2.525 1.000 1.00000 2.210 1.000      6.595  23.000
  227 2.230 1.913  2.547 1.000 1.00000 2.240 1.000      3.146  23.000
  228 2.260 1.941  2.579 1.000 1.00000 2.260 1.000      1.779  23.000
  229 2.340 2.013  2.667 1.000 1.00000 2.340 1.000     25.062  23.000
  230 2.440 2.103  2.777 1.000 1.00000 2.440 1.000     40.349  23.000
  231 2.260 1.941  2.579 1.000 1.00000 2.260 1.000      1.847  23.000
  232 2.250 1.932  2.568 1.000 1.00000 2.250 1.000      1.536  23.000
  233 2.260 1.941  2.579 1.000 1.00000 2.260 1.000      1.773  23.000
  234 2.260 1.941  2.579 1.000 1.00000 2.260 1.000      1.343  23.000
  235 2.240 1.922  2.558 1.000 1.00000 2.240 1.000      1.043  23.000
  236 2.210 1.895  2.525 1.000 1.00000 2.200 1.000      7.089  23.000
  237 2.270 1.950  2.590 1.000 1.00000 2.260 1.000      3.021  23.000
  238 2.250 1.932  2.568 1.000 1.00000 2.250 1.000      0.632  23.000
  239 2.280 1.959  2.601 1.000 1.00000 2.290 1.000      5.183  23.000
  240 2.200 1.886  2.514 1.000 1.00000 2.200 1.000      8.101  23.000
  241 2.200 1.886  2.514 1.000 1.00000 2.200 1.000      7.572  23.000
  242 2.290 1.968  2.612 1.000 1.00000 2.290 1.000      6.576  23.000
  243 2.250 1.932  2.568 1.000 1.00000 2.250 1.000      0.567  23.000
  244 2.250 1.932  2.568 1.000 1.00000 2.250 1.000      0.649  23.000
  245 2.280 1.959  2.601 1.000 1.00000 2.290 1.000      4.693  23.000
  246 2.260 1.941  2.579 1.000 1.00000 2.260 1.000      1.314  23.000
  247 2.260 1.941  2.579 1.000 1.00000 2.260 1.000      1.739  23.000
  248 2.240 1.922  2.558 1.000 1.00000 2.250 1.000      0.839  23.000
  249 2.300 1.977  2.623 1.000 1.00000 2.300 1.000     10.050  23.000
  250 2.310 1.986  2.634 1.000 1.00000 2.310 1.000     14.939  23.000
  251 2.220 1.904  2.536 1.000 1.00000 2.220 1.000      5.130  23.000
  252 2.240 1.922  2.558 1.000 1.00000 2.240 1.000      1.443  23.000
  253 2.250 1.932  2.568 1.000 1.00000 2.250 1.000      1.208  23.000
  254 2.240 1.922  2.558 1.000 1.00000 2.240 1.000      1.136  23.000
  255 2.340 2.013  2.667 1.000 1.00000 2.340 1.000     24.812  23.000
  256 2.210 1.895  2.525 1.000 1.00000 2.210 1.000      6.117  23.000
  257 2.210 1.895  2.525 1.000 1.00000 2.210 1.000      6.716  23.000
  258 2.240 1.922  2.558 1.000 1.00000 2.240 1.000      1.060  23.000
  259 2.250 1.932  2.568 1.000 1.00000 2.250 1.000      0.677  23.000
  260 2.260 1.941  2.579 1.000 1.00000 2.260 1.000      1.530  23.000
  261 2.230 1.913  2.547 1.000 1.00000 2.240 1.000      2.564  23.000
  262 2.260 1.941  2.579 1.000 1.00000 2.260 1.000      1.795  23.000
  263 2.250 1.932  2.568 1.000 1.00000 2.250 1.000      1.264  23.000
  264 2.260 1.941  2.579 1.000 1.00000 2.260 1.000      1.434  23.000
  265 2.260 1.941  2.579 1.000 1.00000 2.260 1.000      1.255  23.000
  266 2.250 1.932  2.568 1.000 1.00000 2.250 1.000      1.151  23.000
  267 2.290 1.968  2.612 1.000 1.00000 2.290 1.000      5.337  23.000
  268 2.260 1.941  2.579 1.000 1.00000 2.260 1.000      1.760  23.000
  269 2.320 1.995  2.645 1.000 1.00000 2.320 1.000     17.882  23.000
  270 2.150 1.841  2.459 1.000 1.00000 2.150 1.000     10.531  23.000
  271 2.280 1.959  2.601 1.000 1.00000 2.290 1.000      4.612  23.000
  272 2.320 1.995  2.645 1.000 1.00000 2.320 1.000     17.911  23.000
  273 2.240 1.922  2.558 1.000 1.00000 2.240 1.000      1.038  23.000
  274 2.260 1.941  2.579 1.000 1.00000 2.260 1.000      1.573  23.000
  275 2.290 1.968  2.612 1.000 1.00000 2.290 1.000      6.729  23.000
  276 2.260 1.941  2.579 1.000 1.00000 2.260 1.000      1.278  23.000
  277 2.240 1.922  2.558 1.000 1.00000 2.240 1.000      1.680  23.000
  278 2.150 1.841  2.459 1.000 1.00000 2.150 1.000     10.171  23.000
  279 2.260 1.941  2.579 1.000 1.00000 2.260 1.000      2.146  23.000
  280 2.190 1.877  2.503 1.000 1.00000 2.200 1.000      9.734  23.000
  281 2.240 1.922  2.558 1.000 1.00000 2.250 1.000      0.741  23.000
  282 2.250 1.932  2.568 1.000 1.00000 2.250 1.000      0.668  23.000
  283 2.240 1.922  2.558 1.000 1.00000 2.240 1.000      1.107  23.000
  284 2.330 2.004  2.656 1.000 1.00000 2.340 1.000     22.642  23.000
  285 2.300 1.977  2.623 1.000 1.00000 2.300 1.000     11.701  23.000
  286 2.290 1.968  2.612 1.000 1.00000 2.290 1.000      5.671  23.000
  287 2.240 1.922  2.558 1.000 1.00000 2.240 1.000      1.126  23.000
  288 2.260 1.941  2.579 1.000 1.00000 2.260 1.000      1.530  23.000
  289 2.340 2.013  2.667 1.000 1.00000 2.340 1.000     24.740  23.000
  290 2.240 1.922  2.558 1.000 1.00000 2.240 1.000      1.832  23.000
  291 2.250 1.932  2.568 1.000 1.00000 2.250 1.000      0.905  23.000
  292 2.310 1.986  2.634 1.000 1.00000 2.310 1.000     15.402  23.000
  293 2.230 1.913  2.547 1.000 1.00000 2.230 1.000      3.825  23.000
  294 2.220 1.904  2.536 1.000 1.00000 2.220 1.000      4.315  23.000
  295 2.270 1.950  2.590 1.000 1.00000 2.260 1.000      2.495  23.000
  296 2.260 1.941  2.579 1.000 1.00000 2.260 1.000      1.268  23.000
  297 2.220 1.904  2.536 1.000 1.00000 2.220 1.000      4.580  23.000
  298 2.230 1.913  2.547 1.000 1.00000 2.230 1.000      3.972  23.000
  299 2.320 1.995  2.645 1.000 1.00000 2.320 1.000     19.508  23.000
  300 2.260 1.941  2.579 1.000 1.00000 2.260 1.000      1.434  23.000
  301 2.290 1.968  2.612 1.000 1.00000 2.290 1.000      6.815  23.000
  302 2.260 1.941  2.579 1.000 1.00000 2.260 1.000      1.250  23.000
  303 2.260 1.941  2.579 1.000 1.00000 2.260 1.000      1.357  23.000
  304 2.320 1.995  2.645 1.000 1.00000 2.320 1.000     18.909  23.000
  305 2.230 1.913  2.547 1.000 1.00000 2.240 1.000      2.671  23.000
  306 2.270 1.950  2.590 1.000 1.00000 2.260 1.000      3.634  23.000
  307 2.250 1.932  2.568 1.000 1.00000 2.250 1.000      0.668  23.000
  308 2.260 1.941  2.579 1.000 1.00000 2.260 1.000      1.256  23.000
  309 2.300 1.977  2.623 1.000 1.00000 2.300 1.000     10.336  23.000
  310 2.240 1.922  2.558 1.000 1.00000 2.240 1.000      2.041  23.000
  311 2.250 1.932  2.568 1.000 1.00000 2.250 1.000      0.791  23.000
  312 2.240 1.922  2.558 1.000 1.00000 2.240 1.000      2.041  23.000
  313 2.240 1.922  2.558 1.000 1.00000 2.240 1.000      2.293  23.000
  314 2.260 1.941  2.579 1.000 1.00000 2.260 1.000      1.685  23.000
  315 2.220 1.904  2.536 1.000 1.00000 2.220 1.000      4.836  23.000
  316 2.240 1.922  2.558 1.000 1.00000 2.240 1.000      1.920  23.000
  317 2.240 1.922  2.558 1.000 1.00000 2.240 1.000      1.543  23.000
  318 2.250 1.932  2.568 1.000 1.00000 2.250 1.000      1.234  23.000
  319 2.150 1.841  2.459 1.000 1.00000 2.150 1.000     11.190  23.000
  320 2.230 1.913  2.547 1.000 1.00000 2.240 1.000      3.196  23.000
  321 2.210 1.895  2.525 1.000 1.00000 2.200 1.000      7.100  23.000
  322 2.250 1.932  2.568 1.000 1.00000 2.250 1.000      0.954  23.000
  323 2.210 1.895  2.525 1.000 1.00000 2.200 1.000      7.239  23.000
  324 2.250 1.932  2.568 1.000 1.00000 2.250 1.000      0.675  23.000
  325 2.270 1.950  2.590 1.000 1.00000 2.260 1.000      2.412  23.000
  326 2.230 1.913  2.547 1.000 1.00000 2.240 1.000      3.049  23.000
  327 2.240 1.922  2.558 1.000 1.00000 2.250 1.000      0.720  23.000
  328 2.250 1.932  2.568 1.000 1.00000 2.250 1.000      1.238  23.000
  329 2.270 1.950  2.590 1.000 1.00000 2.260 1.000      2.462  23.000
  330 2.250 1.932  2.568 1.000 1.00000 2.250 1.000      0.649  23.000
  331 2.260 1.941  2.579 1.000 1.00000 2.260 1.000      1.257  23.000
  332 2.350 2.022  2.678 1.000 1.00000 2.350 1.000     27.413  23.000
  333 2.240 1.922  2.558 1.000 1.00000 2.240 1.000      2.007  23.000
  334 2.150 1.841  2.459 1.000 1.00000 2.150 1.000     10.461  23.000
  335 2.240 1.922  2.558 1.000 1.00000 2.240 1.000      2.217  23.000
  336 2.210 1.895  2.525 1.000 1.00000 2.210 1.000      6.117  23.000
  337 2.240 1.922  2.558 1.000 1.00000 2.240 1.000      1.113  23.000
  338 2.260 1.941  2.579 1.000 1.00000 2.260 1.000      1.250  23.000
  339 2.250 1.932  2.568 1.000 1.00000 2.250 1.000      0.660  23.000
  340 2.260 1.941  2.579 1.000 1.00000 2.260 1.000      1.253  23.000
  341 2.240 1.922  2.558 1.000 1.00000 2.240 1.000      1.100  23.000
  342 2.150 1.841  2.459 1.000 1.00000 2.150 1.000      9.936  23.000
  343 2.240 1.922  2.558 1.000 1.00000 2.240 1.000      1.860  23.000
  344 2.240 1.922  2.558 1.000 1.00000 2.240 1.000      1.468  23.000
  345 2.260 1.941  2.579 1.000 1.00000 2.260 1.000      1.424  23.000
  346 2.260 1.941  2.579 1.000 1.00000 2.260 1.000      1.266  23.000
  347 2.150 1.841  2.459 1.000 1.00000 2.150 1.000      9.331  23.000
  348 2.240 1.922  2.558 1.000 1.00000 2.250 1.000      0.766  23.000
  349 2.290 1.968  2.612 1.000 1.00000 2.300 1.000      8.207  23.000
  350 2.290 1.968  2.612 1.000 1.00000 2.290 1.000      7.963  23.000
  351 2.260 1.941  2.579 1.000 1.00000 2.260 1.000      1.247  23.000
  352 2.220 1.904  2.536 1.000 1.00000 2.220 1.000      5.522  23.000
  353 2.250 1.932  2.568 1.000 1.00000 2.250 1.000      1.580  23.000
  354 2.260 1.941  2.579 1.000 1.00000 2.260 1.000      1.331  23.000
  355 2.300 1.977  2.623 1.000 1.00000 2.300 1.000     11.395  23.000
  356 2.240 1.922  2.558 1.000 1.00000 2.250 1.000      0.990  23.000
  357 2.250 1.932  2.568 1.000 1.00000 2.250 1.000      0.760  23.000
  358 2.260 1.941  2.579 1.000 1.00000 2.260 1.000      1.783  23.000
  359 2.270 1.950  2.590 1.000 1.00000 2.260 1.000      2.804  23.000
  360 2.350 2.022  2.678 1.000 1.00000 2.350 1.000     25.946  23.000
  361 2.240 1.922  2.558 1.000 1.00000 2.240 1.000      1.051  23.000
  362 2.240 1.922  2.558 1.000 1.00000 2.250 1.000      0.774  23.000
  363 2.210 1.895  2.525 1.000 1.00000 2.210 1.000      6.565  23.000
  364 2.290 1.968  2.612 1.000 1.00000 2.290 1.000      6.469  23.000
  365 2.230 1.913  2.547 1.000 1.00000 2.230 1.000      3.458  23.000
  366 2.260 1.941  2.579 1.000 1.00000 2.260 1.000      1.212  23.000
  367 2.240 1.922  2.558 1.000 1.00000 2.240 1.000      1.596  23.000
  368 2.280 1.959  2.601 1.000 1.00000 2.290 1.000      4.812  23.000
  369 2.260 1.941  2.579 1.000 1.00000 2.260 1.000      1.663  23.000
  370 2.260 1.941  2.579 1.000 1.00000 2.260 1.000      1.445  23.000
  371 2.230 1.913  2.547 1.000 1.00000 2.230 1.000      3.660  23.000
  372 2.250 1.932  2.568 1.000 1.00000 2.250 1.000      0.776  23.000
  373 2.260 1.941  2.579 1.000 1.00000 2.260 1.000      1.489  23.000
  374 2.150 1.841  2.459 1.000 1.00000 2.150 1.000      9.333  23.000
  375 2.250 1.932  2.568 1.000 1.00000 2.250 1.000      1.404  23.000
  376 2.250 1.932  2.568 1.000 1.00000 2.250 1.000      0.841  23.000
  377 2.150 1.841  2.459 1.000 1.00000 2.150 1.000     10.186  23.000
  378 2.220 1.904  2.536 1.000 1.00000 2.220 1.000      4.781  23.000
  379 2.230 1.913  2.547 1.000 1.00000 2.230 1.000      3.995  23.000
  380 2.260 1.941  2.579 1.000 1.00000 2.260 1.000      1.796  23.000
  381 2.250 1.932  2.568 1.000 1.00000 2.250 1.000      1.705  23.000
  382 2.260 1.941  2.579 1.000 1.00000 2.260 1.000      1.231  23.000
  383 2.260 1.941  2.579 1.000 1.00000 2.260 1.000      1.430  23.000
  384 2.230 1.913  2.547 1.000 1.00000 2.240 1.000      2.823  23.000
  385 2.230 1.913  2.547 1.000 1.00000 2.230 1.000      3.660  23.000
  386 2.190 1.877  2.503 1.000 1.00000 2.190 1.000     10.281  23.000
  387 2.250 1.932  2.568 1.000 1.00000 2.250 1.000      0.697  23.000
  388 2.230 1.913  2.547 1.000 1.00000 2.240 1.000      3.343  23.000
  389 2.380 2.049  2.711 1.000 1.00000 2.370 1.000     35.540  23.000
  390 2.270 1.950  2.590 1.000 1.00000 2.260 1.000      2.513  23.000
  391 2.220 1.904  2.536 1.000 1.00000 2.220 1.000      4.269  23.000
  392 2.200 1.886  2.514 1.000 1.00000 2.200 1.000      8.270  23.000
  393 2.200 1.886  2.514 1.000 1.00000 2.200 1.000      8.471  23.000
  394 2.390 2.058  2.722 1.000 1.00000 2.430 1.000     35.842  23.000
  395 2.240 1.922  2.558 1.000 1.00000 2.240 1.000      1.298  23.000
  396 2.150 1.841  2.459 1.000 1.00000 2.150 1.000      9.450  23.000
  397 2.240 1.922  2.558 1.000 1.00000 2.240 1.000      1.596  23.000
  398 2.270 1.950  2.590 1.000 1.00000 2.260 1.000      3.535  23.000
  399 2.260 1.941  2.579 1.000 1.00000 2.260 1.000      1.323  23.000
  400 2.270 1.950  2.590 1.000 1.00000 2.260 1.000      3.182  23.000
